Time,Channel B
(us),(mV)

-100.08018580,-5.21866500
-100.04018580,-5.21866500
-100.00018580,-3.45469500
-99.96018580,-3.45469500
-99.92018580,0.07324442
-99.88018580,1.83721400
-99.84018580,1.83721400
-99.80018580,1.83721400
-99.76018580,1.83721400
-99.72018580,3.60118400
-99.68018581,5.36515400
-99.64018581,5.36515400
-99.60018581,7.12912400
-99.56018581,8.89309300
-99.52018581,8.89309300
-99.48018581,8.89309300
-99.44018581,8.89309300
-99.40018581,10.65706000
-99.36018581,12.42103000
-99.32018581,14.18500000
-99.28018581,14.18500000
-99.24018581,15.94897000
-99.20018581,15.94897000
-99.16018581,17.71294000
-99.12018581,17.71294000
-99.08018581,19.47691000
-99.04018581,21.24088000
-99.00018581,21.24088000
-98.96018581,23.00485000
-98.92018581,23.00485000
-98.88018581,24.76882000
-98.84018581,24.76882000
-98.80018581,24.76882000
-98.76018581,26.53279000
-98.72018581,28.29676000
-98.68018581,28.29676000
-98.64018581,30.06684000
-98.60018581,30.06684000
-98.56018581,30.06684000
-98.52018581,31.83080000
-98.48018581,31.83080000
-98.44018581,33.59477000
-98.40018581,35.35874000
-98.36018581,35.35874000
-98.32018581,37.12271000
-98.28018581,37.12271000
-98.24018581,37.12271000
-98.20018581,38.88668000
-98.16018581,38.88668000
-98.12018581,40.65065000
-98.08018581,42.41463000
-98.04018582,42.41463000
-98.00018582,44.17860000
-97.96018582,44.17860000
-97.92018582,45.94257000
-97.88018582,44.17860000
-97.84018582,47.70654000
-97.80018582,47.70654000
-97.76018582,47.70654000
-97.72018582,49.47050000
-97.68018582,49.47050000
-97.64018582,51.23447000
-97.60018582,51.23447000
-97.56018582,51.23447000
-97.52018582,52.99844000
-97.48018582,52.99844000
-97.44018582,54.76241000
-97.40018582,56.52638000
-97.36018582,56.52638000
-97.32018582,58.29646000
-97.28018582,58.29646000
-97.24018582,58.29646000
-97.20018582,58.29646000
-97.16018582,58.29646000
-97.12018582,61.82440000
-97.08018582,60.06042000
-97.04018582,61.82440000
-97.00018582,63.58836000
-96.96018582,63.58836000
-96.92018582,63.58836000
-96.88018582,65.35233000
-96.84018582,65.35233000
-96.80018582,65.35233000
-96.76018582,67.11631000
-96.72018582,67.11631000
-96.68018582,68.88028000
-96.64018582,70.64425000
-96.60018582,70.64425000
-96.56018582,70.64425000
-96.52018582,70.64425000
-96.48018582,72.40822000
-96.44018582,72.40822000
-96.40018583,72.40822000
-96.36018583,72.40822000
-96.32018583,72.40822000
-96.28018583,74.17219000
-96.24018583,74.17219000
-96.20018583,75.93616000
-96.16018583,75.93616000
-96.12018583,75.93616000
-96.08018583,77.70013000
-96.04018583,77.70013000
-96.00018583,77.70013000
-95.96018583,79.46410000
-95.92018583,79.46410000
-95.88018583,79.46410000
-95.84018583,79.46410000
-95.80018583,79.46410000
-95.76018583,81.22807000
-95.72018583,81.22807000
-95.68018583,81.22807000
-95.64018583,81.22807000
-95.60018583,84.75600000
-95.56018583,82.99203000
-95.52018583,84.75600000
-95.48018583,84.75600000
-95.44018583,84.75600000
-95.40018583,84.75600000
-95.36018583,84.75600000
-95.32018583,86.52608000
-95.28018583,86.52608000
-95.24018583,86.52608000
-95.20018583,86.52608000
-95.16018583,86.52608000
-95.12018583,86.52608000
-95.08018583,86.52608000
-95.04018583,86.52608000
-95.00018583,86.52608000
-94.96018583,88.29005000
-94.92018583,88.29005000
-94.88018583,88.29005000
-94.84018583,88.29005000
-94.80018583,88.29005000
-94.76018583,88.29005000
-94.72018584,90.05402000
-94.68018584,90.05402000
-94.64018584,91.81799000
-94.60018584,90.05402000
-94.56018584,90.05402000
-94.52018584,91.81799000
-94.48018584,91.81799000
-94.44018584,91.81799000
-94.40018584,91.81799000
-94.36018584,91.81799000
-94.32018584,91.81799000
-94.28018584,91.81799000
-94.24018584,91.81799000
-94.20018584,91.81799000
-94.16018584,91.81799000
-94.12018584,93.58195000
-94.08018584,90.05402000
-94.04018584,93.58195000
-94.00018584,93.58195000
-93.96018584,93.58195000
-93.92018584,91.81799000
-93.88018584,91.81799000
-93.84018584,91.81799000
-93.80018584,93.58195000
-93.76018584,91.81799000
-93.72018584,91.81799000
-93.68018584,93.58195000
-93.64018584,91.81799000
-93.60018584,91.81799000
-93.56018584,93.58195000
-93.52018584,93.58195000
-93.48018584,91.81799000
-93.44018584,91.81799000
-93.40018584,91.81799000
-93.36018584,91.81799000
-93.32018584,91.81799000
-93.28018584,91.81799000
-93.24018584,91.81799000
-93.20018584,91.81799000
-93.16018584,91.81799000
-93.12018584,91.81799000
-93.08018585,91.81799000
-93.04018585,91.81799000
-93.00018585,91.81799000
-92.96018585,91.81799000
-92.92018585,90.05402000
-92.88018585,90.05402000
-92.84018585,90.05402000
-92.80018585,90.05402000
-92.76018585,88.29005000
-92.72018585,88.29005000
-92.68018585,88.29005000
-92.64018585,86.52608000
-92.60018585,88.29005000
-92.56018585,86.52608000
-92.52018585,86.52608000
-92.48018585,86.52608000
-92.44018585,86.52608000
-92.40018585,86.52608000
-92.36018585,86.52608000
-92.32018585,86.52608000
-92.28018585,86.52608000
-92.24018585,86.52608000
-92.20018585,84.75600000
-92.16018585,84.75600000
-92.12018585,84.75600000
-92.08018585,84.75600000
-92.04018585,84.75600000
-92.00018585,82.99203000
-91.96018585,81.22807000
-91.92018585,81.22807000
-91.88018585,81.22807000
-91.84018585,81.22807000
-91.80018585,79.46410000
-91.76018585,79.46410000
-91.72018585,79.46410000
-91.68018585,79.46410000
-91.64018585,79.46410000
-91.60018585,79.46410000
-91.56018585,77.70013000
-91.52018585,77.70013000
-91.48018585,77.70013000
-91.44018586,77.70013000
-91.40018586,77.70013000
-91.36018586,75.93616000
-91.32018586,74.17219000
-91.28018586,74.17219000
-91.24018586,72.40822000
-91.20018586,72.40822000
-91.16018586,72.40822000
-91.12018586,72.40822000
-91.08018586,72.40822000
-91.04018586,72.40822000
-91.00018586,70.64425000
-90.96018586,70.64425000
-90.92018586,70.64425000
-90.88018586,67.11631000
-90.84018586,67.11631000
-90.80018586,67.11631000
-90.76018586,65.35233000
-90.72018586,65.35233000
-90.68018586,65.35233000
-90.64018586,65.35233000
-90.60018586,63.58836000
-90.56018586,63.58836000
-90.52018586,63.58836000
-90.48018586,61.82440000
-90.44018586,60.06042000
-90.40018586,60.06042000
-90.36018586,58.29646000
-90.32018586,58.29646000
-90.28018586,58.29646000
-90.24018586,56.52638000
-90.20018586,56.52638000
-90.16018586,56.52638000
-90.12018586,54.76241000
-90.08018586,52.99844000
-90.04018586,52.99844000
-90.00018586,51.23447000
-89.96018586,51.23447000
-89.92018586,51.23447000
-89.88018586,51.23447000
-89.84018586,49.47050000
-89.80018587,49.47050000
-89.76018587,49.47050000
-89.72018587,45.94257000
-89.68018587,45.94257000
-89.64018587,44.17860000
-89.60018587,44.17860000
-89.56018587,44.17860000
-89.52018587,42.41463000
-89.48018587,42.41463000
-89.44018587,42.41463000
-89.40018587,38.88668000
-89.36018587,38.88668000
-89.32018587,38.88668000
-89.28018587,37.12271000
-89.24018587,37.12271000
-89.20018587,35.35874000
-89.16018587,35.35874000
-89.12018587,33.59477000
-89.08018587,33.59477000
-89.04018587,31.83080000
-89.00018587,30.06684000
-88.96018587,30.06684000
-88.92018587,30.06684000
-88.88018587,28.29676000
-88.84018587,26.53279000
-88.80018587,28.29676000
-88.76018587,26.53279000
-88.72018587,24.76882000
-88.68018587,23.00485000
-88.64018587,23.00485000
-88.60018587,23.00485000
-88.56018587,23.00485000
-88.52018587,21.24088000
-88.48018587,17.71294000
-88.44018587,17.71294000
-88.40018587,17.71294000
-88.36018587,15.94897000
-88.32018587,15.94897000
-88.28018587,15.94897000
-88.24018587,14.18500000
-88.20018587,12.42103000
-88.16018588,10.65706000
-88.12018588,10.65706000
-88.08018588,8.89309300
-88.04018588,8.89309300
-88.00018588,8.89309300
-87.96018588,7.12912400
-87.92018588,5.36515400
-87.88018588,5.36515400
-87.84018588,3.60118400
-87.80018588,1.83721400
-87.76018588,1.83721400
-87.72018588,1.83721400
-87.68018588,0.07324442
-87.64018588,0.07324442
-87.60018588,-1.69072500
-87.56018588,-3.45469500
-87.52018588,-3.45469500
-87.48018588,-5.21866500
-87.44018588,-5.21866500
-87.40018588,-5.21866500
-87.36018588,-6.98263500
-87.32018588,-8.74660500
-87.28018588,-10.51057000
-87.24018588,-12.27454000
-87.20018588,-12.27454000
-87.16018588,-12.27454000
-87.12018588,-14.03851000
-87.08018588,-14.03851000
-87.04018588,-15.80248000
-87.00018588,-17.56645000
-86.96018588,-17.56645000
-86.92018588,-19.33042000
-86.88018588,-19.33042000
-86.84018588,-21.09439000
-86.80018588,-21.09439000
-86.76018588,-22.85836000
-86.72018588,-22.85836000
-86.68018588,-24.62233000
-86.64018588,-24.62233000
-86.60018588,-26.39241000
-86.56018588,-26.39241000
-86.52018589,-28.15638000
-86.48018589,-28.15638000
-86.44018589,-28.15638000
-86.40018589,-31.68431000
-86.36018589,-31.68431000
-86.32018589,-33.44828000
-86.28018589,-33.44828000
-86.24018589,-33.44828000
-86.20018589,-35.21225000
-86.16018589,-35.21225000
-86.12018589,-36.97623000
-86.08018589,-38.74020000
-86.04018589,-38.74020000
-86.00018589,-40.50417000
-85.96018589,-38.74020000
-85.92018589,-42.26814000
-85.88018589,-42.26814000
-85.84018589,-42.26814000
-85.80018589,-42.26814000
-85.76018589,-45.79607000
-85.72018589,-45.79607000
-85.68018589,-47.56004000
-85.64018589,-47.56004000
-85.60018589,-49.32401000
-85.56018589,-49.32401000
-85.52018589,-49.32401000
-85.48018589,-51.08798000
-85.44018589,-52.85195000
-85.40018589,-52.85195000
-85.36018589,-54.62203000
-85.32018589,-54.62203000
-85.28018589,-54.62203000
-85.24018589,-54.62203000
-85.20018589,-56.38600000
-85.16018589,-56.38600000
-85.12018589,-58.14997000
-85.08018589,-59.91394000
-85.04018589,-59.91394000
-85.00018589,-61.67791000
-84.96018589,-61.67791000
-84.92018589,-61.67791000
-84.88018590,-61.67791000
-84.84018590,-63.44188000
-84.80018590,-63.44188000
-84.76018590,-63.44188000
-84.72018590,-65.20585000
-84.68018590,-66.96982000
-84.64018590,-68.73379000
-84.60018590,-68.73379000
-84.56018590,-68.73379000
-84.52018590,-68.73379000
-84.48018590,-70.49776000
-84.44018590,-70.49776000
-84.40018590,-70.49776000
-84.36018590,-72.26173000
-84.32018590,-74.02570000
-84.28018590,-74.02570000
-84.24018590,-74.02570000
-84.20018590,-75.78967000
-84.16018590,-75.78967000
-84.12018590,-75.78967000
-84.08018590,-77.55363000
-84.04018590,-77.55363000
-84.00018590,-77.55363000
-83.96018590,-77.55363000
-83.92018590,-79.31760000
-83.88018590,-79.31760000
-83.84018590,-81.08157000
-83.80018590,-81.08157000
-83.76018590,-82.85165000
-83.72018590,-82.85165000
-83.68018590,-82.85165000
-83.64018590,-82.85165000
-83.60018590,-82.85165000
-83.56018590,-84.61562000
-83.52018590,-84.61562000
-83.48018590,-84.61562000
-83.44018590,-84.61562000
-83.40018590,-84.61562000
-83.36018590,-88.14356000
-83.32018590,-88.14356000
-83.28018590,-88.14356000
-83.24018590,-88.14356000
-83.20018591,-89.90753000
-83.16018591,-88.14356000
-83.12018591,-89.90753000
-83.08018591,-89.90753000
-83.04018591,-89.90753000
-83.00018591,-89.90753000
-82.96018591,-91.67150000
-82.92018591,-91.67150000
-82.88018591,-91.67150000
-82.84018591,-91.67150000
-82.80018591,-91.67150000
-82.76018591,-91.67150000
-82.72018591,-93.43547000
-82.68018591,-93.43547000
-82.64018591,-95.19944000
-82.60018591,-95.19944000
-82.56018591,-95.19944000
-82.52018591,-95.19944000
-82.48018591,-95.19944000
-82.44018591,-95.19944000
-82.40018591,-95.19944000
-82.36018591,-96.96341000
-82.32018591,-96.96341000
-82.28018591,-96.96341000
-82.24018591,-96.96341000
-82.20018591,-96.96341000
-82.16018591,-96.96341000
-82.12018591,-96.96341000
-82.08018591,-96.96341000
-82.04018591,-96.96341000
-82.00018591,-98.72738000
-81.96018591,-96.96341000
-81.92018591,-96.96341000
-81.88018591,-98.72738000
-81.84018591,-98.72738000
-81.80018591,-96.96341000
-81.76018591,-98.72738000
-81.72018591,-98.72738000
-81.68018591,-98.72738000
-81.64018591,-96.96341000
-81.60018591,-98.72738000
-81.56018592,-98.72738000
-81.52018592,-98.72738000
-81.48018592,-98.72738000
-81.44018592,-98.72738000
-81.40018592,-98.72738000
-81.36018592,-98.72738000
-81.32018592,-98.72738000
-81.28018592,-98.72738000
-81.24018592,-100.49130000
-81.20018592,-98.72738000
-81.16018592,-98.72738000
-81.12018592,-98.72738000
-81.08018592,-98.72738000
-81.04018592,-98.72738000
-81.00018592,-98.72738000
-80.96018592,-98.72738000
-80.92018592,-98.72738000
-80.88018592,-98.72738000
-80.84018592,-98.72738000
-80.80018592,-98.72738000
-80.76018592,-98.72738000
-80.72018592,-98.72738000
-80.68018592,-98.72738000
-80.64018592,-98.72738000
-80.60018592,-96.96341000
-80.56018592,-96.96341000
-80.52018592,-96.96341000
-80.48018592,-96.96341000
-80.44018592,-96.96341000
-80.40018592,-96.96341000
-80.36018592,-96.96341000
-80.32018592,-96.96341000
-80.28018592,-96.96341000
-80.24018592,-96.96341000
-80.20018592,-96.96341000
-80.16018592,-95.19944000
-80.12018592,-95.19944000
-80.08018592,-96.96341000
-80.04018592,-95.19944000
-80.00018592,-95.19944000
-79.96018592,-95.19944000
-79.92018593,-95.19944000
-79.88018593,-93.43547000
-79.84018593,-93.43547000
-79.80018593,-91.67150000
-79.76018593,-93.43547000
-79.72018593,-91.67150000
-79.68018593,-91.67150000
-79.64018593,-91.67150000
-79.60018593,-91.67150000
-79.56018593,-89.90753000
-79.52018593,-89.90753000
-79.48018593,-89.90753000
-79.44018593,-89.90753000
-79.40018593,-89.90753000
-79.36018593,-89.90753000
-79.32018593,-88.14356000
-79.28018593,-88.14356000
-79.24018593,-86.37959000
-79.20018593,-86.37959000
-79.16018593,-88.14356000
-79.12018593,-86.37959000
-79.08018593,-84.61562000
-79.04018593,-84.61562000
-79.00018593,-84.61562000
-78.96018593,-84.61562000
-78.92018593,-82.85165000
-78.88018593,-82.85165000
-78.84018593,-82.85165000
-78.80018593,-82.85165000
-78.76018593,-82.85165000
-78.72018593,-81.08157000
-78.68018593,-79.31760000
-78.64018593,-79.31760000
-78.60018593,-77.55363000
-78.56018593,-77.55363000
-78.52018593,-77.55363000
-78.48018593,-77.55363000
-78.44018593,-75.78967000
-78.40018593,-75.78967000
-78.36018593,-75.78967000
-78.32018593,-74.02570000
-78.28018594,-74.02570000
-78.24018594,-74.02570000
-78.20018594,-72.26173000
-78.16018594,-70.49776000
-78.12018594,-70.49776000
-78.08018594,-68.73379000
-78.04018594,-68.73379000
-78.00018594,-68.73379000
-77.96018594,-68.73379000
-77.92018594,-68.73379000
-77.88018594,-68.73379000
-77.84018594,-65.20585000
-77.80018594,-65.20585000
-77.76018594,-63.44188000
-77.72018594,-63.44188000
-77.68018594,-61.67791000
-77.64018594,-61.67791000
-77.60018594,-61.67791000
-77.56018594,-61.67791000
-77.52018594,-59.91394000
-77.48018594,-59.91394000
-77.44018594,-59.91394000
-77.40018594,-56.38600000
-77.36018594,-56.38600000
-77.32018594,-56.38600000
-77.28018594,-54.62203000
-77.24018594,-54.62203000
-77.20018594,-54.62203000
-77.16018594,-52.85195000
-77.12018594,-52.85195000
-77.08018594,-49.32401000
-77.04018594,-49.32401000
-77.00018594,-49.32401000
-76.96018594,-47.56004000
-76.92018594,-47.56004000
-76.88018594,-47.56004000
-76.84018594,-47.56004000
-76.80018594,-45.79607000
-76.76018594,-44.03210000
-76.72018594,-42.26814000
-76.68018594,-42.26814000
-76.64018595,-40.50417000
-76.60018595,-40.50417000
-76.56018595,-40.50417000
-76.52018595,-36.97623000
-76.48018595,-38.74020000
-76.44018595,-35.21225000
-76.40018595,-35.21225000
-76.36018595,-35.21225000
-76.32018595,-33.44828000
-76.28018595,-33.44828000
-76.24018595,-33.44828000
-76.20018595,-31.68431000
-76.16018595,-31.68431000
-76.12018595,-28.15638000
-76.08018595,-28.15638000
-76.04018595,-26.39241000
-76.00018595,-26.39241000
-75.96018595,-26.39241000
-75.92018595,-24.62233000
-75.88018595,-24.62233000
-75.84018595,-22.85836000
-75.80018595,-22.85836000
-75.76018595,-21.09439000
-75.72018595,-21.09439000
-75.68018595,-19.33042000
-75.64018595,-19.33042000
-75.60018595,-17.56645000
-75.56018595,-17.56645000
-75.52018595,-15.80248000
-75.48018595,-14.03851000
-75.44018595,-14.03851000
-75.40018595,-12.27454000
-75.36018595,-12.27454000
-75.32018595,-10.51057000
-75.28018595,-10.51057000
-75.24018595,-8.74660500
-75.20018595,-6.98263500
-75.16018595,-6.98263500
-75.12018595,-5.21866500
-75.08018595,-5.21866500
-75.04018595,-3.45469500
-75.00018596,-3.45469500
-74.96018596,-1.69072500
-74.92018596,-1.69072500
-74.88018596,0.07324442
-74.84018596,1.83721400
-74.80018596,1.83721400
-74.76018596,3.60118400
-74.72018596,3.60118400
-74.68018596,5.36515400
-74.64018596,7.12912400
-74.60018596,7.12912400
-74.56018596,8.89309300
-74.52018596,8.89309300
-74.48018596,8.89309300
-74.44018596,10.65706000
-74.40018596,10.65706000
-74.36018596,14.18500000
-74.32018596,14.18500000
-74.28018596,15.94897000
-74.24018596,15.94897000
-74.20018596,15.94897000
-74.16018596,15.94897000
-74.12018596,17.71294000
-74.08018596,19.47691000
-74.04018596,21.24088000
-74.00018596,21.24088000
-73.96018596,23.00485000
-73.92018596,23.00485000
-73.88018596,23.00485000
-73.84018596,24.76882000
-73.80018596,24.76882000
-73.76018596,28.29676000
-73.72018596,28.29676000
-73.68018596,28.29676000
-73.64018596,30.06684000
-73.60018596,30.06684000
-73.56018596,31.83080000
-73.52018596,31.83080000
-73.48018596,33.59477000
-73.44018596,33.59477000
-73.40018596,35.35874000
-73.36018597,35.35874000
-73.32018597,37.12271000
-73.28018597,37.12271000
-73.24018597,38.88668000
-73.20018597,38.88668000
-73.16018597,38.88668000
-73.12018597,40.65065000
-73.08018597,42.41463000
-73.04018597,44.17860000
-73.00018597,44.17860000
-72.96018597,44.17860000
-72.92018597,44.17860000
-72.88018597,45.94257000
-72.84018597,47.70654000
-72.80018597,47.70654000
-72.76018597,49.47050000
-72.72018597,49.47050000
-72.68018597,51.23447000
-72.64018597,51.23447000
-72.60018597,51.23447000
-72.56018597,52.99844000
-72.52018597,52.99844000
-72.48018597,54.76241000
-72.44018597,54.76241000
-72.40018597,56.52638000
-72.36018597,56.52638000
-72.32018597,56.52638000
-72.28018597,58.29646000
-72.24018597,58.29646000
-72.20018597,58.29646000
-72.16018597,60.06042000
-72.12018597,60.06042000
-72.08018597,61.82440000
-72.04018597,61.82440000
-72.00018597,63.58836000
-71.96018597,63.58836000
-71.92018597,63.58836000
-71.88018597,65.35233000
-71.84018597,65.35233000
-71.80018597,65.35233000
-71.76018597,67.11631000
-71.72018598,67.11631000
-71.68018598,67.11631000
-71.64018598,68.88028000
-71.60018598,70.64425000
-71.56018598,70.64425000
-71.52018598,70.64425000
-71.48018598,72.40822000
-71.44018598,72.40822000
-71.40018598,72.40822000
-71.36018598,72.40822000
-71.32018598,74.17219000
-71.28018598,74.17219000
-71.24018598,75.93616000
-71.20018598,75.93616000
-71.16018598,75.93616000
-71.12018598,77.70013000
-71.08018598,77.70013000
-71.04018598,77.70013000
-71.00018598,77.70013000
-70.96018598,79.46410000
-70.92018598,79.46410000
-70.88018598,79.46410000
-70.84018598,79.46410000
-70.80018598,79.46410000
-70.76018598,79.46410000
-70.72018598,81.22807000
-70.68018598,81.22807000
-70.64018598,81.22807000
-70.60018598,84.75600000
-70.56018598,82.99203000
-70.52018598,84.75600000
-70.48018598,82.99203000
-70.44018598,84.75600000
-70.40018598,84.75600000
-70.36018598,84.75600000
-70.32018598,86.52608000
-70.28018598,86.52608000
-70.24018598,86.52608000
-70.20018598,86.52608000
-70.16018598,86.52608000
-70.12018598,86.52608000
-70.08018598,86.52608000
-70.04018599,86.52608000
-70.00018599,88.29005000
-69.96018599,88.29005000
-69.92018599,88.29005000
-69.88018599,88.29005000
-69.84018599,88.29005000
-69.80018599,90.05402000
-69.76018599,88.29005000
-69.72018599,90.05402000
-69.68018599,90.05402000
-69.64018599,90.05402000
-69.60018599,90.05402000
-69.56018599,90.05402000
-69.52018599,91.81799000
-69.48018599,91.81799000
-69.44018599,90.05402000
-69.40018599,91.81799000
-69.36018599,91.81799000
-69.32018599,91.81799000
-69.28018599,91.81799000
-69.24018599,91.81799000
-69.20018599,91.81799000
-69.16018599,91.81799000
-69.12018599,91.81799000
-69.08018599,93.58195000
-69.04018599,91.81799000
-69.00018599,91.81799000
-68.96018599,91.81799000
-68.92018599,93.58195000
-68.88018599,93.58195000
-68.84018599,93.58195000
-68.80018599,93.58195000
-68.76018599,91.81799000
-68.72018599,91.81799000
-68.68018599,93.58195000
-68.64018599,91.81799000
-68.60018599,93.58195000
-68.56018599,91.81799000
-68.52018599,93.58195000
-68.48018599,93.58195000
-68.44018599,91.81799000
-68.40018600,91.81799000
-68.36018600,91.81799000
-68.32018600,91.81799000
-68.28018600,91.81799000
-68.24018600,91.81799000
-68.20018600,91.81799000
-68.16018600,91.81799000
-68.12018600,91.81799000
-68.08018600,90.05402000
-68.04018600,91.81799000
-68.00018600,91.81799000
-67.96018600,90.05402000
-67.92018600,90.05402000
-67.88018600,90.05402000
-67.84018600,90.05402000
-67.80018600,90.05402000
-67.76018600,88.29005000
-67.72018600,88.29005000
-67.68018600,88.29005000
-67.64018600,88.29005000
-67.60018600,88.29005000
-67.56018600,88.29005000
-67.52018600,88.29005000
-67.48018600,86.52608000
-67.44018600,86.52608000
-67.40018600,86.52608000
-67.36018600,86.52608000
-67.32018600,86.52608000
-67.28018600,86.52608000
-67.24018600,84.75600000
-67.20018600,84.75600000
-67.16018600,84.75600000
-67.12018600,84.75600000
-67.08018600,84.75600000
-67.04018600,82.99203000
-67.00018600,84.75600000
-66.96018600,81.22807000
-66.92018600,81.22807000
-66.88018600,81.22807000
-66.84018600,81.22807000
-66.80018600,81.22807000
-66.76018601,81.22807000
-66.72018601,79.46410000
-66.68018601,79.46410000
-66.64018601,79.46410000
-66.60018601,79.46410000
-66.56018601,77.70013000
-66.52018601,77.70013000
-66.48018601,77.70013000
-66.44018601,77.70013000
-66.40018601,75.93616000
-66.36018601,75.93616000
-66.32018601,74.17219000
-66.28018601,74.17219000
-66.24018601,74.17219000
-66.20018601,72.40822000
-66.16018601,72.40822000
-66.12018601,72.40822000
-66.08018601,72.40822000
-66.04018601,72.40822000
-66.00018601,70.64425000
-65.96018601,70.64425000
-65.92018601,70.64425000
-65.88018601,68.88028000
-65.84018601,67.11631000
-65.80018601,67.11631000
-65.76018601,65.35233000
-65.72018601,65.35233000
-65.68018601,65.35233000
-65.64018601,65.35233000
-65.60018601,63.58836000
-65.56018601,63.58836000
-65.52018601,61.82440000
-65.48018601,61.82440000
-65.44018601,60.06042000
-65.40018601,58.29646000
-65.36018601,58.29646000
-65.32018601,58.29646000
-65.28018601,58.29646000
-65.24018601,56.52638000
-65.20018601,56.52638000
-65.16018601,56.52638000
-65.12018602,54.76241000
-65.08018602,52.99844000
-65.04018602,52.99844000
-65.00018602,51.23447000
-64.96018602,51.23447000
-64.92018602,51.23447000
-64.88018602,51.23447000
-64.84018602,49.47050000
-64.80018602,49.47050000
-64.76018602,49.47050000
-64.72018602,45.94257000
-64.68018602,45.94257000
-64.64018602,44.17860000
-64.60018602,44.17860000
-64.56018602,44.17860000
-64.52018602,42.41463000
-64.48018602,42.41463000
-64.44018602,42.41463000
-64.40018602,42.41463000
-64.36018602,38.88668000
-64.32018602,37.12271000
-64.28018602,37.12271000
-64.24018602,37.12271000
-64.20018602,37.12271000
-64.16018602,35.35874000
-64.12018602,33.59477000
-64.08018602,31.83080000
-64.04018602,31.83080000
-64.00018602,31.83080000
-63.96018602,30.06684000
-63.92018602,30.06684000
-63.88018602,28.29676000
-63.84018602,28.29676000
-63.80018602,26.53279000
-63.76018602,26.53279000
-63.72018602,24.76882000
-63.68018602,23.00485000
-63.64018602,23.00485000
-63.60018602,23.00485000
-63.56018602,21.24088000
-63.52018602,21.24088000
-63.48018603,19.47691000
-63.44018603,17.71294000
-63.40018603,17.71294000
-63.36018603,15.94897000
-63.32018603,15.94897000
-63.28018603,14.18500000
-63.24018603,14.18500000
-63.20018603,12.42103000
-63.16018603,10.65706000
-63.12018603,8.89309300
-63.08018603,10.65706000
-63.04018603,8.89309300
-63.00018603,8.89309300
-62.96018603,7.12912400
-62.92018603,7.12912400
-62.88018603,5.36515400
-62.84018603,5.36515400
-62.80018603,1.83721400
-62.76018603,1.83721400
-62.72018603,1.83721400
-62.68018603,1.83721400
-62.64018603,0.07324442
-62.60018603,-1.69072500
-62.56018603,-3.45469500
-62.52018603,-3.45469500
-62.48018603,-5.21866500
-62.44018603,-5.21866500
-62.40018603,-6.98263500
-62.36018603,-6.98263500
-62.32018603,-6.98263500
-62.28018603,-8.74660500
-62.24018603,-10.51057000
-62.20018603,-12.27454000
-62.16018603,-12.27454000
-62.12018603,-14.03851000
-62.08018603,-14.03851000
-62.04018603,-15.80248000
-62.00018603,-15.80248000
-61.96018603,-17.56645000
-61.92018603,-19.33042000
-61.88018603,-19.33042000
-61.84018604,-19.33042000
-61.80018604,-21.09439000
-61.76018604,-21.09439000
-61.72018604,-22.85836000
-61.68018604,-24.62233000
-61.64018604,-24.62233000
-61.60018604,-26.39241000
-61.56018604,-26.39241000
-61.52018604,-28.15638000
-61.48018604,-28.15638000
-61.44018604,-28.15638000
-61.40018604,-29.92035000
-61.36018604,-31.68431000
-61.32018604,-31.68431000
-61.28018604,-33.44828000
-61.24018604,-33.44828000
-61.20018604,-35.21225000
-61.16018604,-35.21225000
-61.12018604,-36.97623000
-61.08018604,-38.74020000
-61.04018604,-38.74020000
-61.00018604,-40.50417000
-60.96018604,-40.50417000
-60.92018604,-40.50417000
-60.88018604,-40.50417000
-60.84018604,-42.26814000
-60.80018604,-42.26814000
-60.76018604,-45.79607000
-60.72018604,-45.79607000
-60.68018604,-47.56004000
-60.64018604,-47.56004000
-60.60018604,-47.56004000
-60.56018604,-49.32401000
-60.52018604,-49.32401000
-60.48018604,-51.08798000
-60.44018604,-52.85195000
-60.40018604,-52.85195000
-60.36018604,-54.62203000
-60.32018604,-54.62203000
-60.28018604,-54.62203000
-60.24018604,-54.62203000
-60.20018605,-54.62203000
-60.16018605,-56.38600000
-60.12018605,-58.14997000
-60.08018605,-59.91394000
-60.04018605,-59.91394000
-60.00018605,-61.67791000
-59.96018605,-61.67791000
-59.92018605,-61.67791000
-59.88018605,-63.44188000
-59.84018605,-63.44188000
-59.80018605,-63.44188000
-59.76018605,-65.20585000
-59.72018605,-65.20585000
-59.68018605,-66.96982000
-59.64018605,-68.73379000
-59.60018605,-68.73379000
-59.56018605,-68.73379000
-59.52018605,-68.73379000
-59.48018605,-68.73379000
-59.44018605,-70.49776000
-59.40018605,-72.26173000
-59.36018605,-72.26173000
-59.32018605,-74.02570000
-59.28018605,-74.02570000
-59.24018605,-74.02570000
-59.20018605,-74.02570000
-59.16018605,-75.78967000
-59.12018605,-75.78967000
-59.08018605,-75.78967000
-59.04018605,-77.55363000
-59.00018605,-77.55363000
-58.96018605,-77.55363000
-58.92018605,-81.08157000
-58.88018605,-81.08157000
-58.84018605,-81.08157000
-58.80018605,-81.08157000
-58.76018605,-82.85165000
-58.72018605,-82.85165000
-58.68018605,-82.85165000
-58.64018605,-82.85165000
-58.60018605,-82.85165000
-58.56018605,-82.85165000
-58.52018606,-82.85165000
-58.48018606,-84.61562000
-58.44018606,-84.61562000
-58.40018606,-86.37959000
-58.36018606,-86.37959000
-58.32018606,-86.37959000
-58.28018606,-88.14356000
-58.24018606,-88.14356000
-58.20018606,-88.14356000
-58.16018606,-89.90753000
-58.12018606,-89.90753000
-58.08018606,-89.90753000
-58.04018606,-89.90753000
-58.00018606,-89.90753000
-57.96018606,-91.67150000
-57.92018606,-91.67150000
-57.88018606,-91.67150000
-57.84018606,-91.67150000
-57.80018606,-91.67150000
-57.76018606,-91.67150000
-57.72018606,-93.43547000
-57.68018606,-91.67150000
-57.64018606,-93.43547000
-57.60018606,-95.19944000
-57.56018606,-95.19944000
-57.52018606,-95.19944000
-57.48018606,-96.96341000
-57.44018606,-95.19944000
-57.40018606,-95.19944000
-57.36018606,-96.96341000
-57.32018606,-96.96341000
-57.28018606,-96.96341000
-57.24018606,-96.96341000
-57.20018606,-96.96341000
-57.16018606,-96.96341000
-57.12018606,-96.96341000
-57.08018606,-96.96341000
-57.04018606,-96.96341000
-57.00018606,-96.96341000
-56.96018606,-98.72738000
-56.92018606,-98.72738000
-56.88018607,-96.96341000
-56.84018607,-98.72738000
-56.80018607,-98.72738000
-56.76018607,-98.72738000
-56.72018607,-98.72738000
-56.68018607,-98.72738000
-56.64018607,-98.72738000
-56.60018607,-98.72738000
-56.56018607,-98.72738000
-56.52018607,-98.72738000
-56.48018607,-98.72738000
-56.44018607,-98.72738000
-56.40018607,-98.72738000
-56.36018607,-98.72738000
-56.32018607,-100.49130000
-56.28018607,-96.96341000
-56.24018607,-100.49130000
-56.20018607,-98.72738000
-56.16018607,-98.72738000
-56.12018607,-98.72738000
-56.08018607,-98.72738000
-56.04018607,-98.72738000
-56.00018607,-98.72738000
-55.96018607,-98.72738000
-55.92018607,-98.72738000
-55.88018607,-98.72738000
-55.84018607,-98.72738000
-55.80018607,-98.72738000
-55.76018607,-98.72738000
-55.72018607,-98.72738000
-55.68018607,-98.72738000
-55.64018607,-96.96341000
-55.60018607,-96.96341000
-55.56018607,-96.96341000
-55.52018607,-96.96341000
-55.48018607,-96.96341000
-55.44018607,-96.96341000
-55.40018607,-96.96341000
-55.36018607,-96.96341000
-55.32018607,-96.96341000
-55.28018607,-96.96341000
-55.24018608,-96.96341000
-55.20018608,-95.19944000
-55.16018608,-95.19944000
-55.12018608,-95.19944000
-55.08018608,-95.19944000
-55.04018608,-95.19944000
-55.00018608,-96.96341000
-54.96018608,-93.43547000
-54.92018608,-93.43547000
-54.88018608,-93.43547000
-54.84018608,-93.43547000
-54.80018608,-91.67150000
-54.76018608,-91.67150000
-54.72018608,-91.67150000
-54.68018608,-91.67150000
-54.64018608,-91.67150000
-54.60018608,-91.67150000
-54.56018608,-89.90753000
-54.52018608,-89.90753000
-54.48018608,-89.90753000
-54.44018608,-89.90753000
-54.40018608,-89.90753000
-54.36018608,-89.90753000
-54.32018608,-89.90753000
-54.28018608,-88.14356000
-54.24018608,-86.37959000
-54.20018608,-86.37959000
-54.16018608,-84.61562000
-54.12018608,-84.61562000
-54.08018608,-84.61562000
-54.04018608,-84.61562000
-54.00018608,-82.85165000
-53.96018608,-84.61562000
-53.92018608,-82.85165000
-53.88018608,-82.85165000
-53.84018608,-81.08157000
-53.80018608,-81.08157000
-53.76018608,-81.08157000
-53.72018608,-81.08157000
-53.68018608,-79.31760000
-53.64018608,-77.55363000
-53.60018609,-77.55363000
-53.56018609,-77.55363000
-53.52018609,-77.55363000
-53.48018609,-77.55363000
-53.44018609,-75.78967000
-53.40018609,-75.78967000
-53.36018609,-75.78967000
-53.32018609,-74.02570000
-53.28018609,-74.02570000
-53.24018609,-74.02570000
-53.20018609,-72.26173000
-53.16018609,-70.49776000
-53.12018609,-70.49776000
-53.08018609,-68.73379000
-53.04018609,-70.49776000
-53.00018609,-68.73379000
-52.96018609,-68.73379000
-52.92018609,-68.73379000
-52.88018609,-66.96982000
-52.84018609,-65.20585000
-52.80018609,-63.44188000
-52.76018609,-63.44188000
-52.72018609,-63.44188000
-52.68018609,-61.67791000
-52.64018609,-61.67791000
-52.60018609,-61.67791000
-52.56018609,-59.91394000
-52.52018609,-59.91394000
-52.48018609,-58.14997000
-52.44018609,-58.14997000
-52.40018609,-56.38600000
-52.36018609,-56.38600000
-52.32018609,-54.62203000
-52.28018609,-54.62203000
-52.24018609,-54.62203000
-52.20018609,-52.85195000
-52.16018609,-52.85195000
-52.12018609,-52.85195000
-52.08018609,-51.08798000
-52.04018609,-49.32401000
-52.00018609,-49.32401000
-51.96018610,-49.32401000
-51.92018610,-47.56004000
-51.88018610,-47.56004000
-51.84018610,-45.79607000
-51.80018610,-45.79607000
-51.76018610,-45.79607000
-51.72018610,-42.26814000
-51.68018610,-40.50417000
-51.64018610,-40.50417000
-51.60018610,-40.50417000
-51.56018610,-40.50417000
-51.52018610,-38.74020000
-51.48018610,-36.97623000
-51.44018610,-36.97623000
-51.40018610,-35.21225000
-51.36018610,-35.21225000
-51.32018610,-33.44828000
-51.28018610,-33.44828000
-51.24018610,-31.68431000
-51.20018610,-31.68431000
-51.16018610,-29.92035000
-51.12018610,-28.15638000
-51.08018610,-28.15638000
-51.04018610,-26.39241000
-51.00018610,-26.39241000
-50.96018610,-26.39241000
-50.92018610,-24.62233000
-50.88018610,-24.62233000
-50.84018610,-22.85836000
-50.80018610,-21.09439000
-50.76018610,-21.09439000
-50.72018610,-21.09439000
-50.68018610,-19.33042000
-50.64018610,-19.33042000
-50.60018610,-17.56645000
-50.56018610,-17.56645000
-50.52018610,-14.03851000
-50.48018610,-14.03851000
-50.44018610,-12.27454000
-50.40018610,-12.27454000
-50.36018610,-12.27454000
-50.32018611,-10.51057000
-50.28018611,-8.74660500
-50.24018611,-6.98263500
-50.20018611,-6.98263500
-50.16018611,-6.98263500
-50.12018611,-5.21866500
-50.08018611,-5.21866500
-50.04018611,-3.45469500
-50.00018611,-1.69072500
-49.96018611,-1.69072500
-49.92018611,0.07324442
-49.88018611,0.07324442
-49.84018611,1.83721400
-49.80018611,1.83721400
-49.76018611,3.60118400
-49.72018611,3.60118400
-49.68018611,5.36515400
-49.64018611,7.12912400
-49.60018611,7.12912400
-49.56018611,8.89309300
-49.52018611,8.89309300
-49.48018611,8.89309300
-49.44018611,10.65706000
-49.40018611,12.42103000
-49.36018611,14.18500000
-49.32018611,14.18500000
-49.28018611,15.94897000
-49.24018611,15.94897000
-49.20018611,15.94897000
-49.16018611,17.71294000
-49.12018611,17.71294000
-49.08018611,19.47691000
-49.04018611,21.24088000
-49.00018611,21.24088000
-48.96018611,23.00485000
-48.92018611,23.00485000
-48.88018611,23.00485000
-48.84018611,24.76882000
-48.80018611,26.53279000
-48.76018611,26.53279000
-48.72018611,28.29676000
-48.68018612,30.06684000
-48.64018612,30.06684000
-48.60018612,30.06684000
-48.56018612,31.83080000
-48.52018612,31.83080000
-48.48018612,33.59477000
-48.44018612,35.35874000
-48.40018612,35.35874000
-48.36018612,37.12271000
-48.32018612,37.12271000
-48.28018612,37.12271000
-48.24018612,37.12271000
-48.20018612,38.88668000
-48.16018612,38.88668000
-48.12018612,42.41463000
-48.08018612,42.41463000
-48.04018612,42.41463000
-48.00018612,44.17860000
-47.96018612,44.17860000
-47.92018612,44.17860000
-47.88018612,45.94257000
-47.84018612,45.94257000
-47.80018612,47.70654000
-47.76018612,49.47050000
-47.72018612,49.47050000
-47.68018612,51.23447000
-47.64018612,51.23447000
-47.60018612,51.23447000
-47.56018612,51.23447000
-47.52018612,52.99844000
-47.48018612,52.99844000
-47.44018612,54.76241000
-47.40018612,56.52638000
-47.36018612,56.52638000
-47.32018612,58.29646000
-47.28018612,58.29646000
-47.24018612,58.29646000
-47.20018612,58.29646000
-47.16018612,60.06042000
-47.12018612,60.06042000
-47.08018612,61.82440000
-47.04018613,61.82440000
-47.00018613,63.58836000
-46.96018613,63.58836000
-46.92018613,63.58836000
-46.88018613,65.35233000
-46.84018613,65.35233000
-46.80018613,65.35233000
-46.76018613,67.11631000
-46.72018613,67.11631000
-46.68018613,68.88028000
-46.64018613,68.88028000
-46.60018613,70.64425000
-46.56018613,70.64425000
-46.52018613,70.64425000
-46.48018613,72.40822000
-46.44018613,72.40822000
-46.40018613,72.40822000
-46.36018613,72.40822000
-46.32018613,74.17219000
-46.28018613,74.17219000
-46.24018613,75.93616000
-46.20018613,75.93616000
-46.16018613,75.93616000
-46.12018613,77.70013000
-46.08018613,77.70013000
-46.04018613,77.70013000
-46.00018613,77.70013000
-45.96018613,79.46410000
-45.92018613,79.46410000
-45.88018613,79.46410000
-45.84018613,79.46410000
-45.80018613,81.22807000
-45.76018613,79.46410000
-45.72018613,81.22807000
-45.68018613,81.22807000
-45.64018613,81.22807000
-45.60018613,82.99203000
-45.56018613,84.75600000
-45.52018613,84.75600000
-45.48018613,84.75600000
-45.44018613,84.75600000
-45.40018613,84.75600000
-45.36018614,84.75600000
-45.32018614,86.52608000
-45.28018614,86.52608000
-45.24018614,86.52608000
-45.20018614,86.52608000
-45.16018614,86.52608000
-45.12018614,86.52608000
-45.08018614,86.52608000
-45.04018614,86.52608000
-45.00018614,88.29005000
-44.96018614,88.29005000
-44.92018614,88.29005000
-44.88018614,88.29005000
-44.84018614,88.29005000
-44.80018614,90.05402000
-44.76018614,90.05402000
-44.72018614,90.05402000
-44.68018614,90.05402000
-44.64018614,91.81799000
-44.60018614,90.05402000
-44.56018614,91.81799000
-44.52018614,91.81799000
-44.48018614,91.81799000
-44.44018614,91.81799000
-44.40018614,91.81799000
-44.36018614,91.81799000
-44.32018614,91.81799000
-44.28018614,93.58195000
-44.24018614,91.81799000
-44.20018614,91.81799000
-44.16018614,93.58195000
-44.12018614,93.58195000
-44.08018614,93.58195000
-44.04018614,93.58195000
-44.00018614,93.58195000
-43.96018614,93.58195000
-43.92018614,93.58195000
-43.88018614,93.58195000
-43.84018614,93.58195000
-43.80018614,91.81799000
-43.76018614,93.58195000
-43.72018615,91.81799000
-43.68018615,93.58195000
-43.64018615,93.58195000
-43.60018615,91.81799000
-43.56018615,91.81799000
-43.52018615,93.58195000
-43.48018615,91.81799000
-43.44018615,91.81799000
-43.40018615,91.81799000
-43.36018615,91.81799000
-43.32018615,91.81799000
-43.28018615,91.81799000
-43.24018615,91.81799000
-43.20018615,91.81799000
-43.16018615,91.81799000
-43.12018615,91.81799000
-43.08018615,91.81799000
-43.04018615,91.81799000
-43.00018615,91.81799000
-42.96018615,90.05402000
-42.92018615,90.05402000
-42.88018615,90.05402000
-42.84018615,90.05402000
-42.80018615,88.29005000
-42.76018615,90.05402000
-42.72018615,88.29005000
-42.68018615,88.29005000
-42.64018615,88.29005000
-42.60018615,88.29005000
-42.56018615,88.29005000
-42.52018615,86.52608000
-42.48018615,86.52608000
-42.44018615,86.52608000
-42.40018615,86.52608000
-42.36018615,86.52608000
-42.32018615,86.52608000
-42.28018615,86.52608000
-42.24018615,84.75600000
-42.20018615,86.52608000
-42.16018615,84.75600000
-42.12018615,84.75600000
-42.08018616,84.75600000
-42.04018616,82.99203000
-42.00018616,82.99203000
-41.96018616,84.75600000
-41.92018616,81.22807000
-41.88018616,81.22807000
-41.84018616,81.22807000
-41.80018616,79.46410000
-41.76018616,79.46410000
-41.72018616,79.46410000
-41.68018616,79.46410000
-41.64018616,79.46410000
-41.60018616,79.46410000
-41.56018616,79.46410000
-41.52018616,75.93616000
-41.48018616,75.93616000
-41.44018616,77.70013000
-41.40018616,75.93616000
-41.36018616,75.93616000
-41.32018616,74.17219000
-41.28018616,74.17219000
-41.24018616,74.17219000
-41.20018616,72.40822000
-41.16018616,72.40822000
-41.12018616,72.40822000
-41.08018616,72.40822000
-41.04018616,72.40822000
-41.00018616,70.64425000
-40.96018616,70.64425000
-40.92018616,68.88028000
-40.88018616,68.88028000
-40.84018616,67.11631000
-40.80018616,67.11631000
-40.76018616,65.35233000
-40.72018616,65.35233000
-40.68018616,65.35233000
-40.64018616,65.35233000
-40.60018616,65.35233000
-40.56018616,63.58836000
-40.52018616,61.82440000
-40.48018616,61.82440000
-40.44018617,60.06042000
-40.40018617,60.06042000
-40.36018617,58.29646000
-40.32018617,58.29646000
-40.28018617,58.29646000
-40.24018617,58.29646000
-40.20018617,56.52638000
-40.16018617,56.52638000
-40.12018617,54.76241000
-40.08018617,54.76241000
-40.04018617,52.99844000
-40.00018617,52.99844000
-39.96018617,51.23447000
-39.92018617,51.23447000
-39.88018617,51.23447000
-39.84018617,49.47050000
-39.80018617,49.47050000
-39.76018617,47.70654000
-39.72018617,47.70654000
-39.68018617,45.94257000
-39.64018617,44.17860000
-39.60018617,44.17860000
-39.56018617,44.17860000
-39.52018617,42.41463000
-39.48018617,40.65065000
-39.44018617,42.41463000
-39.40018617,38.88668000
-39.36018617,38.88668000
-39.32018617,37.12271000
-39.28018617,37.12271000
-39.24018617,37.12271000
-39.20018617,35.35874000
-39.16018617,35.35874000
-39.12018617,35.35874000
-39.08018617,33.59477000
-39.04018617,31.83080000
-39.00018617,30.06684000
-38.96018617,30.06684000
-38.92018617,30.06684000
-38.88018617,28.29676000
-38.84018617,28.29676000
-38.80018618,26.53279000
-38.76018618,26.53279000
-38.72018618,24.76882000
-38.68018618,24.76882000
-38.64018618,23.00485000
-38.60018618,23.00485000
-38.56018618,21.24088000
-38.52018618,21.24088000
-38.48018618,19.47691000
-38.44018618,17.71294000
-38.40018618,17.71294000
-38.36018618,15.94897000
-38.32018618,15.94897000
-38.28018618,15.94897000
-38.24018618,14.18500000
-38.20018618,12.42103000
-38.16018618,12.42103000
-38.12018618,10.65706000
-38.08018618,8.89309300
-38.04018618,8.89309300
-38.00018618,8.89309300
-37.96018618,7.12912400
-37.92018618,7.12912400
-37.88018618,5.36515400
-37.84018618,3.60118400
-37.80018618,1.83721400
-37.76018618,1.83721400
-37.72018618,1.83721400
-37.68018618,0.07324442
-37.64018618,0.07324442
-37.60018618,0.07324442
-37.56018618,-3.45469500
-37.52018618,-3.45469500
-37.48018618,-5.21866500
-37.44018618,-5.21866500
-37.40018618,-5.21866500
-37.36018618,-6.98263500
-37.32018618,-8.74660500
-37.28018618,-10.51057000
-37.24018618,-10.51057000
-37.20018618,-12.27454000
-37.16018619,-12.27454000
-37.12018619,-14.03851000
-37.08018619,-14.03851000
-37.04018619,-15.80248000
-37.00018619,-15.80248000
-36.96018619,-17.56645000
-36.92018619,-19.33042000
-36.88018619,-19.33042000
-36.84018619,-21.09439000
-36.80018619,-21.09439000
-36.76018619,-21.09439000
-36.72018619,-24.62233000
-36.68018619,-24.62233000
-36.64018619,-26.39241000
-36.60018619,-26.39241000
-36.56018619,-26.39241000
-36.52018619,-26.39241000
-36.48018619,-28.15638000
-36.44018619,-28.15638000
-36.40018619,-29.92035000
-36.36018619,-31.68431000
-36.32018619,-33.44828000
-36.28018619,-33.44828000
-36.24018619,-33.44828000
-36.20018619,-35.21225000
-36.16018619,-35.21225000
-36.12018619,-36.97623000
-36.08018619,-36.97623000
-36.04018619,-38.74020000
-36.00018619,-38.74020000
-35.96018619,-40.50417000
-35.92018619,-40.50417000
-35.88018619,-42.26814000
-35.84018619,-42.26814000
-35.80018619,-45.79607000
-35.76018619,-45.79607000
-35.72018619,-45.79607000
-35.68018619,-47.56004000
-35.64018619,-47.56004000
-35.60018619,-47.56004000
-35.56018619,-49.32401000
-35.52018620,-49.32401000
-35.48018620,-51.08798000
-35.44018620,-52.85195000
-35.40018620,-52.85195000
-35.36018620,-54.62203000
-35.32018620,-54.62203000
-35.28018620,-54.62203000
-35.24018620,-54.62203000
-35.20018620,-56.38600000
-35.16018620,-56.38600000
-35.12018620,-58.14997000
-35.08018620,-58.14997000
-35.04018620,-59.91394000
-35.00018620,-61.67791000
-34.96018620,-61.67791000
-34.92018620,-61.67791000
-34.88018620,-61.67791000
-34.84018620,-63.44188000
-34.80018620,-63.44188000
-34.76018620,-66.96982000
-34.72018620,-65.20585000
-34.68018620,-66.96982000
-34.64018620,-68.73379000
-34.60018620,-68.73379000
-34.56018620,-68.73379000
-34.52018620,-68.73379000
-34.48018620,-70.49776000
-34.44018620,-70.49776000
-34.40018620,-70.49776000
-34.36018620,-74.02570000
-34.32018620,-74.02570000
-34.28018620,-74.02570000
-34.24018620,-74.02570000
-34.20018620,-75.78967000
-34.16018620,-75.78967000
-34.12018620,-75.78967000
-34.08018620,-75.78967000
-34.04018620,-77.55363000
-34.00018620,-77.55363000
-33.96018620,-77.55363000
-33.92018620,-79.31760000
-33.88018620,-79.31760000
-33.84018621,-81.08157000
-33.80018621,-81.08157000
-33.76018621,-82.85165000
-33.72018621,-81.08157000
-33.68018621,-82.85165000
-33.64018621,-82.85165000
-33.60018621,-82.85165000
-33.56018621,-84.61562000
-33.52018621,-84.61562000
-33.48018621,-84.61562000
-33.44018621,-84.61562000
-33.40018621,-84.61562000
-33.36018621,-86.37959000
-33.32018621,-88.14356000
-33.28018621,-88.14356000
-33.24018621,-88.14356000
-33.20018621,-89.90753000
-33.16018621,-89.90753000
-33.12018621,-89.90753000
-33.08018621,-89.90753000
-33.04018621,-89.90753000
-33.00018621,-89.90753000
-32.96018621,-91.67150000
-32.92018621,-91.67150000
-32.88018621,-91.67150000
-32.84018621,-91.67150000
-32.80018621,-91.67150000
-32.76018621,-91.67150000
-32.72018621,-93.43547000
-32.68018621,-93.43547000
-32.64018621,-93.43547000
-32.60018621,-93.43547000
-32.56018621,-95.19944000
-32.52018621,-95.19944000
-32.48018621,-95.19944000
-32.44018621,-95.19944000
-32.40018621,-96.96341000
-32.36018621,-95.19944000
-32.32018621,-96.96341000
-32.28018621,-96.96341000
-32.24018621,-96.96341000
-32.20018622,-96.96341000
-32.16018622,-96.96341000
-32.12018622,-96.96341000
-32.08018622,-96.96341000
-32.04018622,-96.96341000
-32.00018622,-96.96341000
-31.96018622,-96.96341000
-31.92018622,-96.96341000
-31.88018622,-96.96341000
-31.84018622,-98.72738000
-31.80018622,-98.72738000
-31.76018622,-98.72738000
-31.72018622,-98.72738000
-31.68018622,-98.72738000
-31.64018622,-98.72738000
-31.60018622,-98.72738000
-31.56018622,-98.72738000
-31.52018622,-98.72738000
-31.48018622,-98.72738000
-31.44018622,-98.72738000
-31.40018622,-98.72738000
-31.36018622,-98.72738000
-31.32018622,-98.72738000
-31.28018622,-98.72738000
-31.24018622,-98.72738000
-31.20018622,-98.72738000
-31.16018622,-98.72738000
-31.12018622,-98.72738000
-31.08018622,-98.72738000
-31.04018622,-98.72738000
-31.00018622,-98.72738000
-30.96018622,-98.72738000
-30.92018622,-98.72738000
-30.88018622,-98.72738000
-30.84018622,-98.72738000
-30.80018622,-98.72738000
-30.76018622,-96.96341000
-30.72018622,-96.96341000
-30.68018622,-96.96341000
-30.64018622,-96.96341000
-30.60018622,-96.96341000
-30.56018623,-96.96341000
-30.52018623,-96.96341000
-30.48018623,-96.96341000
-30.44018623,-96.96341000
-30.40018623,-96.96341000
-30.36018623,-96.96341000
-30.32018623,-96.96341000
-30.28018623,-96.96341000
-30.24018623,-96.96341000
-30.20018623,-96.96341000
-30.16018623,-96.96341000
-30.12018623,-95.19944000
-30.08018623,-95.19944000
-30.04018623,-95.19944000
-30.00018623,-95.19944000
-29.96018623,-95.19944000
-29.92018623,-95.19944000
-29.88018623,-93.43547000
-29.84018623,-93.43547000
-29.80018623,-91.67150000
-29.76018623,-91.67150000
-29.72018623,-91.67150000
-29.68018623,-91.67150000
-29.64018623,-91.67150000
-29.60018623,-89.90753000
-29.56018623,-89.90753000
-29.52018623,-89.90753000
-29.48018623,-89.90753000
-29.44018623,-89.90753000
-29.40018623,-88.14356000
-29.36018623,-88.14356000
-29.32018623,-88.14356000
-29.28018623,-88.14356000
-29.24018623,-88.14356000
-29.20018623,-86.37959000
-29.16018623,-84.61562000
-29.12018623,-84.61562000
-29.08018623,-84.61562000
-29.04018623,-84.61562000
-29.00018623,-82.85165000
-28.96018623,-82.85165000
-28.92018624,-82.85165000
-28.88018624,-82.85165000
-28.84018624,-82.85165000
-28.80018624,-82.85165000
-28.76018624,-81.08157000
-28.72018624,-81.08157000
-28.68018624,-81.08157000
-28.64018624,-79.31760000
-28.60018624,-77.55363000
-28.56018624,-77.55363000
-28.52018624,-77.55363000
-28.48018624,-75.78967000
-28.44018624,-75.78967000
-28.40018624,-75.78967000
-28.36018624,-75.78967000
-28.32018624,-74.02570000
-28.28018624,-74.02570000
-28.24018624,-74.02570000
-28.20018624,-70.49776000
-28.16018624,-70.49776000
-28.12018624,-70.49776000
-28.08018624,-68.73379000
-28.04018624,-68.73379000
-28.00018624,-68.73379000
-27.96018624,-68.73379000
-27.92018624,-66.96982000
-27.88018624,-65.20585000
-27.84018624,-65.20585000
-27.80018624,-65.20585000
-27.76018624,-63.44188000
-27.72018624,-63.44188000
-27.68018624,-61.67791000
-27.64018624,-61.67791000
-27.60018624,-61.67791000
-27.56018624,-61.67791000
-27.52018624,-59.91394000
-27.48018624,-59.91394000
-27.44018624,-58.14997000
-27.40018624,-56.38600000
-27.36018624,-56.38600000
-27.32018624,-54.62203000
-27.28018625,-54.62203000
-27.24018625,-54.62203000
-27.20018625,-52.85195000
-27.16018625,-52.85195000
-27.12018625,-52.85195000
-27.08018625,-51.08798000
-27.04018625,-49.32401000
-27.00018625,-49.32401000
-26.96018625,-47.56004000
-26.92018625,-47.56004000
-26.88018625,-47.56004000
-26.84018625,-45.79607000
-26.80018625,-45.79607000
-26.76018625,-44.03210000
-26.72018625,-42.26814000
-26.68018625,-42.26814000
-26.64018625,-40.50417000
-26.60018625,-38.74020000
-26.56018625,-38.74020000
-26.52018625,-38.74020000
-26.48018625,-36.97623000
-26.44018625,-35.21225000
-26.40018625,-35.21225000
-26.36018625,-35.21225000
-26.32018625,-33.44828000
-26.28018625,-33.44828000
-26.24018625,-33.44828000
-26.20018625,-31.68431000
-26.16018625,-29.92035000
-26.12018625,-28.15638000
-26.08018625,-28.15638000
-26.04018625,-28.15638000
-26.00018625,-26.39241000
-25.96018625,-26.39241000
-25.92018625,-24.62233000
-25.88018625,-22.85836000
-25.84018625,-22.85836000
-25.80018625,-21.09439000
-25.76018625,-21.09439000
-25.72018625,-21.09439000
-25.68018625,-19.33042000
-25.64018626,-19.33042000
-25.60018626,-17.56645000
-25.56018626,-17.56645000
-25.52018626,-15.80248000
-25.48018626,-14.03851000
-25.44018626,-14.03851000
-25.40018626,-12.27454000
-25.36018626,-12.27454000
-25.32018626,-10.51057000
-25.28018626,-10.51057000
-25.24018626,-6.98263500
-25.20018626,-6.98263500
-25.16018626,-5.21866500
-25.12018626,-5.21866500
-25.08018626,-5.21866500
-25.04018626,-3.45469500
-25.00018626,-3.45469500
-24.96018626,-1.69072500
-24.92018626,0.07324442
-24.88018626,0.07324442
-24.84018626,1.83721400
-24.80018626,1.83721400
-24.76018626,3.60118400
-24.72018626,3.60118400
-24.68018626,5.36515400
-24.64018626,7.12912400
-24.60018626,7.12912400
-24.56018626,8.89309300
-24.52018626,8.89309300
-24.48018626,8.89309300
-24.44018626,10.65706000
-24.40018626,10.65706000
-24.36018626,14.18500000
-24.32018626,14.18500000
-24.28018626,14.18500000
-24.24018626,15.94897000
-24.20018626,15.94897000
-24.16018626,17.71294000
-24.12018626,17.71294000
-24.08018626,19.47691000
-24.04018626,21.24088000
-24.00018627,21.24088000
-23.96018627,23.00485000
-23.92018627,23.00485000
-23.88018627,23.00485000
-23.84018627,24.76882000
-23.80018627,24.76882000
-23.76018627,26.53279000
-23.72018627,28.29676000
-23.68018627,30.06684000
-23.64018627,30.06684000
-23.60018627,30.06684000
-23.56018627,31.83080000
-23.52018627,31.83080000
-23.48018627,33.59477000
-23.44018627,35.35874000
-23.40018627,35.35874000
-23.36018627,37.12271000
-23.32018627,35.35874000
-23.28018627,37.12271000
-23.24018627,38.88668000
-23.20018627,38.88668000
-23.16018627,40.65065000
-23.12018627,40.65065000
-23.08018627,42.41463000
-23.04018627,44.17860000
-23.00018627,44.17860000
-22.96018627,44.17860000
-22.92018627,44.17860000
-22.88018627,45.94257000
-22.84018627,47.70654000
-22.80018627,47.70654000
-22.76018627,49.47050000
-22.72018627,49.47050000
-22.68018627,51.23447000
-22.64018627,51.23447000
-22.60018627,51.23447000
-22.56018627,52.99844000
-22.52018627,52.99844000
-22.48018627,52.99844000
-22.44018627,54.76241000
-22.40018627,56.52638000
-22.36018627,56.52638000
-22.32018628,58.29646000
-22.28018628,58.29646000
-22.24018628,58.29646000
-22.20018628,58.29646000
-22.16018628,60.06042000
-22.12018628,60.06042000
-22.08018628,63.58836000
-22.04018628,63.58836000
-22.00018628,63.58836000
-21.96018628,63.58836000
-21.92018628,63.58836000
-21.88018628,65.35233000
-21.84018628,65.35233000
-21.80018628,67.11631000
-21.76018628,67.11631000
-21.72018628,67.11631000
-21.68018628,70.64425000
-21.64018628,67.11631000
-21.60018628,70.64425000
-21.56018628,70.64425000
-21.52018628,70.64425000
-21.48018628,72.40822000
-21.44018628,72.40822000
-21.40018628,72.40822000
-21.36018628,72.40822000
-21.32018628,74.17219000
-21.28018628,74.17219000
-21.24018628,74.17219000
-21.20018628,75.93616000
-21.16018628,75.93616000
-21.12018628,77.70013000
-21.08018628,77.70013000
-21.04018628,77.70013000
-21.00018628,77.70013000
-20.96018628,79.46410000
-20.92018628,79.46410000
-20.88018628,79.46410000
-20.84018628,79.46410000
-20.80018628,81.22807000
-20.76018628,81.22807000
-20.72018628,81.22807000
-20.68018629,82.99203000
-20.64018629,82.99203000
-20.60018629,82.99203000
-20.56018629,84.75600000
-20.52018629,84.75600000
-20.48018629,84.75600000
-20.44018629,84.75600000
-20.40018629,84.75600000
-20.36018629,86.52608000
-20.32018629,86.52608000
-20.28018629,86.52608000
-20.24018629,86.52608000
-20.20018629,86.52608000
-20.16018629,86.52608000
-20.12018629,86.52608000
-20.08018629,86.52608000
-20.04018629,88.29005000
-20.00018629,88.29005000
-19.96018629,88.29005000
-19.92018629,88.29005000
-19.88018629,88.29005000
-19.84018629,86.52608000
-19.80018629,90.05402000
-19.76018629,90.05402000
-19.72018629,90.05402000
-19.68018629,90.05402000
-19.64018629,90.05402000
-19.60018629,91.81799000
-19.56018629,91.81799000
-19.52018629,91.81799000
-19.48018629,91.81799000
-19.44018629,91.81799000
-19.40018629,91.81799000
-19.36018629,91.81799000
-19.32018629,91.81799000
-19.28018629,91.81799000
-19.24018629,91.81799000
-19.20018629,91.81799000
-19.16018629,93.58195000
-19.12018629,93.58195000
-19.08018629,91.81799000
-19.04018630,91.81799000
-19.00018630,93.58195000
-18.96018630,93.58195000
-18.92018630,93.58195000
-18.88018630,91.81799000
-18.84018630,93.58195000
-18.80018630,93.58195000
-18.76018630,93.58195000
-18.72018630,93.58195000
-18.68018630,93.58195000
-18.64018630,93.58195000
-18.60018630,93.58195000
-18.56018630,93.58195000
-18.52018630,93.58195000
-18.48018630,91.81799000
-18.44018630,91.81799000
-18.40018630,91.81799000
-18.36018630,91.81799000
-18.32018630,91.81799000
-18.28018630,91.81799000
-18.24018630,91.81799000
-18.20018630,91.81799000
-18.16018630,91.81799000
-18.12018630,91.81799000
-18.08018630,91.81799000
-18.04018630,91.81799000
-18.00018630,90.05402000
-17.96018630,91.81799000
-17.92018630,90.05402000
-17.88018630,91.81799000
-17.84018630,90.05402000
-17.80018630,88.29005000
-17.76018630,90.05402000
-17.72018630,88.29005000
-17.68018630,88.29005000
-17.64018630,88.29005000
-17.60018630,88.29005000
-17.56018630,86.52608000
-17.52018630,88.29005000
-17.48018630,88.29005000
-17.44018630,86.52608000
-17.40018631,86.52608000
-17.36018631,86.52608000
-17.32018631,86.52608000
-17.28018631,86.52608000
-17.24018631,86.52608000
-17.20018631,84.75600000
-17.16018631,84.75600000
-17.12018631,84.75600000
-17.08018631,84.75600000
-17.04018631,84.75600000
-17.00018631,82.99203000
-16.96018631,82.99203000
-16.92018631,82.99203000
-16.88018631,81.22807000
-16.84018631,81.22807000
-16.80018631,79.46410000
-16.76018631,79.46410000
-16.72018631,79.46410000
-16.68018631,79.46410000
-16.64018631,79.46410000
-16.60018631,79.46410000
-16.56018631,77.70013000
-16.52018631,77.70013000
-16.48018631,77.70013000
-16.44018631,77.70013000
-16.40018631,77.70013000
-16.36018631,74.17219000
-16.32018631,75.93616000
-16.28018631,74.17219000
-16.24018631,74.17219000
-16.20018631,72.40822000
-16.16018631,72.40822000
-16.12018631,72.40822000
-16.08018631,72.40822000
-16.04018631,70.64425000
-16.00018631,70.64425000
-15.96018631,70.64425000
-15.92018631,68.88028000
-15.88018631,67.11631000
-15.84018631,67.11631000
-15.80018631,67.11631000
-15.76018632,65.35233000
-15.72018632,65.35233000
-15.68018632,65.35233000
-15.64018632,65.35233000
-15.60018632,63.58836000
-15.56018632,63.58836000
-15.52018632,63.58836000
-15.48018632,61.82440000
-15.44018632,60.06042000
-15.40018632,60.06042000
-15.36018632,58.29646000
-15.32018632,58.29646000
-15.28018632,58.29646000
-15.24018632,58.29646000
-15.20018632,56.52638000
-15.16018632,56.52638000
-15.12018632,54.76241000
-15.08018632,54.76241000
-15.04018632,52.99844000
-15.00018632,51.23447000
-14.96018632,51.23447000
-14.92018632,51.23447000
-14.88018632,51.23447000
-14.84018632,49.47050000
-14.80018632,47.70654000
-14.76018632,47.70654000
-14.72018632,47.70654000
-14.68018632,45.94257000
-14.64018632,44.17860000
-14.60018632,44.17860000
-14.56018632,44.17860000
-14.52018632,44.17860000
-14.48018632,42.41463000
-14.44018632,40.65065000
-14.40018632,38.88668000
-14.36018632,38.88668000
-14.32018632,37.12271000
-14.28018632,37.12271000
-14.24018632,37.12271000
-14.20018632,35.35874000
-14.16018632,35.35874000
-14.12018633,35.35874000
-14.08018633,33.59477000
-14.04018633,31.83080000
-14.00018633,31.83080000
-13.96018633,30.06684000
-13.92018633,30.06684000
-13.88018633,30.06684000
-13.84018633,28.29676000
-13.80018633,28.29676000
-13.76018633,24.76882000
-13.72018633,24.76882000
-13.68018633,23.00485000
-13.64018633,23.00485000
-13.60018633,23.00485000
-13.56018633,21.24088000
-13.52018633,21.24088000
-13.48018633,19.47691000
-13.44018633,17.71294000
-13.40018633,17.71294000
-13.36018633,15.94897000
-13.32018633,15.94897000
-13.28018633,15.94897000
-13.24018633,14.18500000
-13.20018633,14.18500000
-13.16018633,12.42103000
-13.12018633,10.65706000
-13.08018633,8.89309300
-13.04018633,8.89309300
-13.00018633,8.89309300
-12.96018633,7.12912400
-12.92018633,7.12912400
-12.88018633,5.36515400
-12.84018633,3.60118400
-12.80018633,1.83721400
-12.76018633,1.83721400
-12.72018633,1.83721400
-12.68018633,0.07324442
-12.64018633,0.07324442
-12.60018633,0.07324442
-12.56018633,-1.69072500
-12.52018633,-3.45469500
-12.48018634,-5.21866500
-12.44018634,-5.21866500
-12.40018634,-6.98263500
-12.36018634,-6.98263500
-12.32018634,-8.74660500
-12.28018634,-8.74660500
-12.24018634,-10.51057000
-12.20018634,-12.27454000
-12.16018634,-12.27454000
-12.12018634,-12.27454000
-12.08018634,-14.03851000
-12.04018634,-15.80248000
-12.00018634,-17.56645000
-11.96018634,-19.33042000
-11.92018634,-17.56645000
-11.88018634,-19.33042000
-11.84018634,-21.09439000
-11.80018634,-19.33042000
-11.76018634,-21.09439000
-11.72018634,-22.85836000
-11.68018634,-22.85836000
-11.64018634,-24.62233000
-11.60018634,-26.39241000
-11.56018634,-26.39241000
-11.52018634,-26.39241000
-11.48018634,-28.15638000
-11.44018634,-29.92035000
-11.40018634,-29.92035000
-11.36018634,-31.68431000
-11.32018634,-33.44828000
-11.28018634,-33.44828000
-11.24018634,-33.44828000
-11.20018634,-33.44828000
-11.16018634,-35.21225000
-11.12018634,-36.97623000
-11.08018634,-38.74020000
-11.04018634,-38.74020000
-11.00018634,-40.50417000
-10.96018634,-40.50417000
-10.92018634,-40.50417000
-10.88018634,-40.50417000
-10.84018635,-42.26814000
-10.80018635,-42.26814000
-10.76018635,-45.79607000
-10.72018635,-45.79607000
-10.68018635,-47.56004000
-10.64018635,-47.56004000
-10.60018635,-47.56004000
-10.56018635,-49.32401000
-10.52018635,-49.32401000
-10.48018635,-51.08798000
-10.44018635,-52.85195000
-10.40018635,-52.85195000
-10.36018635,-54.62203000
-10.32018635,-54.62203000
-10.28018635,-54.62203000
-10.24018635,-54.62203000
-10.20018635,-56.38600000
-10.16018635,-56.38600000
-10.12018635,-58.14997000
-10.08018635,-59.91394000
-10.04018635,-59.91394000
-10.00018635,-61.67791000
-9.96018635,-61.67791000
-9.92018635,-61.67791000
-9.88018635,-61.67791000
-9.84018635,-63.44188000
-9.80018635,-63.44188000
-9.76018635,-65.20585000
-9.72018635,-65.20585000
-9.68018635,-66.96982000
-9.64018635,-68.73379000
-9.60018635,-68.73379000
-9.56018635,-68.73379000
-9.52018635,-68.73379000
-9.48018635,-68.73379000
-9.44018635,-70.49776000
-9.40018635,-70.49776000
-9.36018635,-74.02570000
-9.32018635,-74.02570000
-9.28018635,-74.02570000
-9.24018635,-74.02570000
-9.20018635,-75.78967000
-9.16018636,-75.78967000
-9.12018636,-75.78967000
-9.08018636,-75.78967000
-9.04018636,-77.55363000
-9.00018636,-77.55363000
-8.96018636,-77.55363000
-8.92018636,-79.31760000
-8.88018636,-79.31760000
-8.84018636,-81.08157000
-8.80018636,-81.08157000
-8.76018636,-81.08157000
-8.72018636,-82.85165000
-8.68018636,-82.85165000
-8.64018636,-82.85165000
-8.60018636,-82.85165000
-8.56018636,-82.85165000
-8.52018636,-82.85165000
-8.48018636,-84.61562000
-8.44018636,-84.61562000
-8.40018636,-84.61562000
-8.36018636,-88.14356000
-8.32018636,-88.14356000
-8.28018636,-88.14356000
-8.24018636,-88.14356000
-8.20018636,-88.14356000
-8.16018636,-88.14356000
-8.12018636,-89.90753000
-8.08018636,-89.90753000
-8.04018636,-89.90753000
-8.00018636,-91.67150000
-7.96018636,-91.67150000
-7.92018636,-89.90753000
-7.88018636,-91.67150000
-7.84018636,-91.67150000
-7.80018636,-91.67150000
-7.76018636,-91.67150000
-7.72018636,-91.67150000
-7.68018636,-95.19944000
-7.64018636,-93.43547000
-7.60018636,-93.43547000
-7.56018636,-95.19944000
-7.52018637,-95.19944000
-7.48018637,-95.19944000
-7.44018637,-95.19944000
-7.40018637,-95.19944000
-7.36018637,-96.96341000
-7.32018637,-96.96341000
-7.28018637,-96.96341000
-7.24018637,-96.96341000
-7.20018637,-96.96341000
-7.16018637,-96.96341000
-7.12018637,-96.96341000
-7.08018637,-96.96341000
-7.04018637,-96.96341000
-7.00018637,-96.96341000
-6.96018637,-96.96341000
-6.92018637,-96.96341000
-6.88018637,-96.96341000
-6.84018637,-98.72738000
-6.80018637,-96.96341000
-6.76018637,-98.72738000
-6.72018637,-98.72738000
-6.68018637,-98.72738000
-6.64018637,-98.72738000
-6.60018637,-98.72738000
-6.56018637,-98.72738000
-6.52018637,-98.72738000
-6.48018637,-98.72738000
-6.44018637,-98.72738000
-6.40018637,-98.72738000
-6.36018637,-98.72738000
-6.32018637,-98.72738000
-6.28018637,-98.72738000
-6.24018637,-98.72738000
-6.20018637,-98.72738000
-6.16018637,-98.72738000
-6.12018637,-98.72738000
-6.08018637,-98.72738000
-6.04018637,-98.72738000
-6.00018637,-98.72738000
-5.96018637,-98.72738000
-5.92018637,-98.72738000
-5.88018638,-98.72738000
-5.84018638,-98.72738000
-5.80018638,-98.72738000
-5.76018638,-96.96341000
-5.72018638,-98.72738000
-5.68018638,-96.96341000
-5.64018638,-96.96341000
-5.60018638,-96.96341000
-5.56018638,-96.96341000
-5.52018638,-96.96341000
-5.48018638,-96.96341000
-5.44018638,-96.96341000
-5.40018638,-96.96341000
-5.36018638,-96.96341000
-5.32018638,-96.96341000
-5.28018638,-96.96341000
-5.24018638,-96.96341000
-5.20018638,-96.96341000
-5.16018638,-96.96341000
-5.12018638,-93.43547000
-5.08018638,-96.96341000
-5.04018638,-95.19944000
-5.00018638,-93.43547000
-4.96018638,-93.43547000
-4.92018638,-93.43547000
-4.88018638,-93.43547000
-4.84018638,-93.43547000
-4.80018638,-91.67150000
-4.76018638,-91.67150000
-4.72018638,-91.67150000
-4.68018638,-89.90753000
-4.64018638,-89.90753000
-4.60018638,-89.90753000
-4.56018638,-89.90753000
-4.52018638,-89.90753000
-4.48018638,-89.90753000
-4.44018638,-88.14356000
-4.40018638,-89.90753000
-4.36018638,-88.14356000
-4.32018638,-88.14356000
-4.28018638,-88.14356000
-4.24018639,-86.37959000
-4.20018639,-86.37959000
-4.16018639,-86.37959000
-4.12018639,-84.61562000
-4.08018639,-84.61562000
-4.04018639,-84.61562000
-4.00018639,-82.85165000
-3.96018639,-82.85165000
-3.92018639,-82.85165000
-3.88018639,-82.85165000
-3.84018639,-82.85165000
-3.80018639,-81.08157000
-3.76018639,-81.08157000
-3.72018639,-79.31760000
-3.68018639,-79.31760000
-3.64018639,-77.55363000
-3.60018639,-77.55363000
-3.56018639,-77.55363000
-3.52018639,-77.55363000
-3.48018639,-75.78967000
-3.44018639,-75.78967000
-3.40018639,-75.78967000
-3.36018639,-75.78967000
-3.32018639,-74.02570000
-3.28018639,-74.02570000
-3.24018639,-74.02570000
-3.20018639,-72.26173000
-3.16018639,-70.49776000
-3.12018639,-70.49776000
-3.08018639,-70.49776000
-3.04018639,-68.73379000
-3.00018639,-68.73379000
-2.96018639,-68.73379000
-2.92018639,-68.73379000
-2.88018639,-66.96982000
-2.84018639,-65.20585000
-2.80018639,-63.44188000
-2.76018639,-63.44188000
-2.72018639,-61.67791000
-2.68018639,-61.67791000
-2.64018639,-61.67791000
-2.60018640,-61.67791000
-2.56018640,-59.91394000
-2.52018640,-59.91394000
-2.48018640,-59.91394000
-2.44018640,-58.14997000
-2.40018640,-56.38600000
-2.36018640,-56.38600000
-2.32018640,-56.38600000
-2.28018640,-54.62203000
-2.24018640,-54.62203000
-2.20018640,-52.85195000
-2.16018640,-52.85195000
-2.12018640,-51.08798000
-2.08018640,-51.08798000
-2.04018640,-49.32401000
-2.00018640,-49.32401000
-1.96018640,-47.56004000
-1.92018640,-47.56004000
-1.88018640,-47.56004000
-1.84018640,-45.79607000
-1.80018640,-42.26814000
-1.76018640,-42.26814000
-1.72018640,-42.26814000
-1.68018640,-42.26814000
-1.64018640,-40.50417000
-1.60018640,-40.50417000
-1.56018640,-38.74020000
-1.52018640,-38.74020000
-1.48018640,-36.97623000
-1.44018640,-35.21225000
-1.40018640,-35.21225000
-1.36018640,-33.44828000
-1.32018640,-33.44828000
-1.28018640,-33.44828000
-1.24018640,-33.44828000
-1.20018640,-31.68431000
-1.16018640,-29.92035000
-1.12018640,-28.15638000
-1.08018640,-28.15638000
-1.04018640,-28.15638000
-1.00018640,-26.39241000
-0.96018641,-26.39241000
-0.92018641,-24.62233000
-0.88018641,-24.62233000
-0.84018641,-22.85836000
-0.80018641,-21.09439000
-0.76018641,-21.09439000
-0.72018641,-19.33042000
-0.68018641,-19.33042000
-0.64018641,-19.33042000
-0.60018641,-17.56645000
-0.56018641,-17.56645000
-0.52018641,-14.03851000
-0.48018641,-14.03851000
-0.44018641,-14.03851000
-0.40018641,-12.27454000
-0.36018641,-12.27454000
-0.32018641,-10.51057000
-0.28018641,-8.74660500
-0.24018641,-6.98263500
-0.20018641,-6.98263500
-0.16018641,-5.21866500
-0.12018641,-5.21866500
-0.08018641,-5.21866500
-0.04018641,-3.45469500
-0.00018641,-3.45469500
0.03981359,0.07324442
0.07981359,0.07324442
0.11981359,0.07324442
0.15981359,1.83721400
0.19981359,1.83721400
0.23981359,3.60118400
0.27981359,3.60118400
0.31981359,5.36515400
0.35981359,7.12912400
0.39981359,7.12912400
0.43981359,8.89309300
0.47981359,8.89309300
0.51981359,8.89309300
0.55981359,10.65706000
0.59981359,12.42103000
0.63981359,14.18500000
0.67981358,14.18500000
0.71981358,14.18500000
0.75981358,15.94897000
0.79981358,15.94897000
0.83981358,17.71294000
0.87981358,19.47691000
0.91981358,19.47691000
0.95981358,21.24088000
0.99981358,21.24088000
1.03981358,23.00485000
1.07981358,23.00485000
1.11981358,24.76882000
1.15981358,24.76882000
1.19981358,28.29676000
1.23981358,28.29676000
1.27981358,28.29676000
1.31981358,28.29676000
1.35981358,30.06684000
1.39981358,30.06684000
1.43981358,31.83080000
1.47981358,31.83080000
1.51981358,33.59477000
1.55981358,35.35874000
1.59981358,35.35874000
1.63981358,35.35874000
1.67981358,37.12271000
1.71981358,37.12271000
1.75981358,38.88668000
1.79981358,38.88668000
1.83981358,38.88668000
1.87981358,40.65065000
1.91981358,42.41463000
1.95981358,42.41463000
1.99981358,44.17860000
2.03981358,44.17860000
2.07981358,45.94257000
2.11981358,45.94257000
2.15981358,47.70654000
2.19981358,49.47050000
2.23981358,49.47050000
2.27981358,49.47050000
2.31981358,51.23447000
2.35981357,51.23447000
2.39981357,51.23447000
2.43981357,52.99844000
2.47981357,52.99844000
2.51981357,54.76241000
2.55981357,56.52638000
2.59981357,56.52638000
2.63981357,56.52638000
2.67981357,58.29646000
2.71981357,58.29646000
2.75981357,58.29646000
2.79981357,60.06042000
2.83981357,60.06042000
2.87981357,61.82440000
2.91981357,63.58836000
2.95981357,63.58836000
2.99981357,63.58836000
3.03981357,63.58836000
3.07981357,63.58836000
3.11981357,65.35233000
3.15981357,67.11631000
3.19981357,65.35233000
3.23981357,67.11631000
3.27981357,67.11631000
3.31981357,68.88028000
3.35981357,70.64425000
3.39981357,70.64425000
3.43981357,70.64425000
3.47981357,72.40822000
3.51981357,72.40822000
3.55981357,72.40822000
3.59981357,72.40822000
3.63981357,74.17219000
3.67981357,72.40822000
3.71981357,74.17219000
3.75981357,74.17219000
3.79981357,77.70013000
3.83981357,77.70013000
3.87981357,77.70013000
3.91981357,77.70013000
3.95981357,77.70013000
3.99981356,79.46410000
4.03981356,79.46410000
4.07981356,79.46410000
4.11981356,79.46410000
4.15981356,79.46410000
4.19981356,81.22807000
4.23981356,81.22807000
4.27981356,81.22807000
4.31981356,81.22807000
4.35981356,81.22807000
4.39981356,82.99203000
4.43981356,84.75600000
4.47981356,84.75600000
4.51981356,84.75600000
4.55981356,86.52608000
4.59981356,86.52608000
4.63981356,84.75600000
4.67981356,86.52608000
4.71981356,86.52608000
4.75981356,86.52608000
4.79981356,86.52608000
4.83981356,86.52608000
4.87981356,86.52608000
4.91981356,88.29005000
4.95981356,88.29005000
4.99981356,88.29005000
5.03981356,88.29005000
5.07981356,88.29005000
5.11981356,90.05402000
5.15981356,90.05402000
5.19981356,90.05402000
5.23981356,90.05402000
5.27981356,90.05402000
5.31981356,90.05402000
5.35981356,91.81799000
5.39981356,90.05402000
5.43981356,91.81799000
5.47981356,91.81799000
5.51981356,91.81799000
5.55981356,91.81799000
5.59981356,91.81799000
5.63981355,91.81799000
5.67981355,91.81799000
5.71981355,91.81799000
5.75981355,93.58195000
5.79981355,91.81799000
5.83981355,91.81799000
5.87981355,91.81799000
5.91981355,93.58195000
5.95981355,93.58195000
5.99981355,93.58195000
6.03981355,93.58195000
6.07981355,93.58195000
6.11981355,93.58195000
6.15981355,93.58195000
6.19981355,93.58195000
6.23981355,93.58195000
6.27981355,93.58195000
6.31981355,93.58195000
6.35981355,93.58195000
6.39981355,91.81799000
6.43981355,93.58195000
6.47981355,93.58195000
6.51981355,93.58195000
6.55981355,91.81799000
6.59981355,91.81799000
6.63981355,93.58195000
6.67981355,93.58195000
6.71981355,91.81799000
6.75981355,91.81799000
6.79981355,91.81799000
6.83981355,91.81799000
6.87981355,91.81799000
6.91981355,91.81799000
6.95981355,91.81799000
6.99981355,91.81799000
7.03981355,91.81799000
7.07981355,91.81799000
7.11981355,90.05402000
7.15981355,90.05402000
7.19981355,90.05402000
7.23981355,90.05402000
7.27981354,88.29005000
7.31981354,91.81799000
7.35981354,88.29005000
7.39981354,88.29005000
7.43981354,88.29005000
7.47981354,88.29005000
7.51981354,88.29005000
7.55981354,86.52608000
7.59981354,86.52608000
7.63981354,86.52608000
7.67981354,86.52608000
7.71981354,86.52608000
7.75981354,86.52608000
7.79981354,86.52608000
7.83981354,86.52608000
7.87981354,84.75600000
7.91981354,84.75600000
7.95981354,84.75600000
7.99981354,82.99203000
8.03981354,82.99203000
8.07981354,81.22807000
8.11981354,81.22807000
8.15981354,81.22807000
8.19981354,81.22807000
8.23981354,79.46410000
8.27981354,79.46410000
8.31981354,79.46410000
8.35981354,79.46410000
8.39981354,79.46410000
8.43981354,79.46410000
8.47981354,77.70013000
8.51981354,77.70013000
8.55981354,77.70013000
8.59981354,75.93616000
8.63981354,75.93616000
8.67981354,75.93616000
8.71981354,74.17219000
8.75981354,74.17219000
8.79981354,72.40822000
8.83981354,72.40822000
8.87981354,72.40822000
8.91981353,72.40822000
8.95981353,72.40822000
8.99981353,70.64425000
9.03981353,70.64425000
9.07981353,70.64425000
9.11981353,68.88028000
9.15981353,67.11631000
9.19981353,67.11631000
9.23981353,65.35233000
9.27981353,65.35233000
9.31981353,65.35233000
9.35981353,65.35233000
9.39981353,63.58836000
9.43981353,63.58836000
9.47981353,61.82440000
9.51981353,61.82440000
9.55981353,61.82440000
9.59981353,60.06042000
9.63981353,58.29646000
9.67981353,58.29646000
9.71981353,58.29646000
9.75981353,58.29646000
9.79981353,56.52638000
9.83981353,52.99844000
9.87981353,54.76241000
9.91981353,54.76241000
9.95981353,52.99844000
9.99981353,52.99844000
10.03981353,51.23447000
10.07981353,51.23447000
10.11981353,51.23447000
10.15981353,49.47050000
10.19981353,49.47050000
10.23981353,47.70654000
10.27981353,47.70654000
10.31981353,45.94257000
10.35981353,44.17860000
10.39981353,44.17860000
10.43981353,44.17860000
10.47981353,44.17860000
10.51981353,42.41463000
10.55981352,42.41463000
10.59981352,38.88668000
10.63981352,38.88668000
10.67981352,38.88668000
10.71981352,37.12271000
10.75981352,37.12271000
10.79981352,35.35874000
10.83981352,35.35874000
10.87981352,35.35874000
10.91981352,31.83080000
10.95981352,31.83080000
10.99981352,30.06684000
11.03981352,30.06684000
11.07981352,30.06684000
11.11981352,28.29676000
11.15981352,28.29676000
11.19981352,28.29676000
11.23981352,26.53279000
11.27981352,24.76882000
11.31981352,23.00485000
11.35981352,23.00485000
11.39981352,23.00485000
11.43981352,21.24088000
11.47981352,21.24088000
11.51981352,19.47691000
11.55981352,19.47691000
11.59981352,17.71294000
11.63981352,15.94897000
11.67981352,15.94897000
11.71981352,15.94897000
11.75981352,14.18500000
11.79981352,14.18500000
11.83981352,12.42103000
11.87981352,10.65706000
11.91981352,8.89309300
11.95981352,8.89309300
11.99981352,7.12912400
12.03981352,7.12912400
12.07981352,7.12912400
12.11981352,5.36515400
12.15981352,3.60118400
12.19981351,1.83721400
12.23981351,1.83721400
12.27981351,1.83721400
12.31981351,0.07324442
12.35981351,0.07324442
12.39981351,-1.69072500
12.43981351,-3.45469500
12.47981351,-5.21866500
12.51981351,-5.21866500
12.55981351,-5.21866500
12.59981351,-6.98263500
12.63981351,-6.98263500
12.67981351,-8.74660500
12.71981351,-10.51057000
12.75981351,-10.51057000
12.79981351,-12.27454000
12.83981351,-12.27454000
12.87981351,-12.27454000
12.91981351,-14.03851000
12.95981351,-15.80248000
12.99981351,-17.56645000
13.03981351,-17.56645000
13.07981351,-19.33042000
13.11981351,-19.33042000
13.15981351,-19.33042000
13.19981351,-21.09439000
13.23981351,-21.09439000
13.27981351,-22.85836000
13.31981351,-24.62233000
13.35981351,-24.62233000
13.39981351,-26.39241000
13.43981351,-26.39241000
13.47981351,-26.39241000
13.51981351,-28.15638000
13.55981351,-28.15638000
13.59981351,-29.92035000
13.63981351,-31.68431000
13.67981351,-33.44828000
13.71981351,-33.44828000
13.75981351,-33.44828000
13.79981351,-35.21225000
13.83981351,-35.21225000
13.87981350,-36.97623000
13.91981350,-38.74020000
13.95981350,-38.74020000
13.99981350,-40.50417000
14.03981350,-40.50417000
14.07981350,-42.26814000
14.11981350,-42.26814000
14.15981350,-42.26814000
14.19981350,-42.26814000
14.23981350,-45.79607000
14.27981350,-45.79607000
14.31981350,-47.56004000
14.35981350,-47.56004000
14.39981350,-47.56004000
14.43981350,-49.32401000
14.47981350,-49.32401000
14.51981350,-49.32401000
14.55981350,-52.85195000
14.59981350,-52.85195000
14.63981350,-54.62203000
14.67981350,-54.62203000
14.71981350,-54.62203000
14.75981350,-54.62203000
14.79981350,-56.38600000
14.83981350,-56.38600000
14.87981350,-58.14997000
14.91981350,-56.38600000
14.95981350,-59.91394000
14.99981350,-61.67791000
15.03981350,-61.67791000
15.07981350,-61.67791000
15.11981350,-63.44188000
15.15981350,-61.67791000
15.19981350,-63.44188000
15.23981350,-63.44188000
15.27981350,-66.96982000
15.31981350,-66.96982000
15.35981350,-66.96982000
15.39981350,-68.73379000
15.43981350,-68.73379000
15.47981350,-68.73379000
15.51981349,-70.49776000
15.55981349,-70.49776000
15.59981349,-70.49776000
15.63981349,-72.26173000
15.67981349,-74.02570000
15.71981349,-74.02570000
15.75981349,-75.78967000
15.79981349,-75.78967000
15.83981349,-75.78967000
15.87981349,-75.78967000
15.91981349,-75.78967000
15.95981349,-75.78967000
15.99981349,-77.55363000
16.03981349,-77.55363000
16.07981349,-79.31760000
16.11981349,-79.31760000
16.15981349,-79.31760000
16.19981349,-81.08157000
16.23981349,-81.08157000
16.27981349,-82.85165000
16.31981349,-82.85165000
16.35981349,-82.85165000
16.39981349,-82.85165000
16.43981349,-82.85165000
16.47981349,-82.85165000
16.51981349,-84.61562000
16.55981349,-84.61562000
16.59981349,-84.61562000
16.63981349,-84.61562000
16.67981349,-86.37959000
16.71981349,-88.14356000
16.75981349,-88.14356000
16.79981349,-88.14356000
16.83981349,-89.90753000
16.87981349,-88.14356000
16.91981349,-89.90753000
16.95981349,-89.90753000
16.99981349,-89.90753000
17.03981349,-91.67150000
17.07981349,-91.67150000
17.11981349,-91.67150000
17.15981348,-91.67150000
17.19981348,-91.67150000
17.23981348,-91.67150000
17.27981348,-93.43547000
17.31981348,-93.43547000
17.35981348,-93.43547000
17.39981348,-93.43547000
17.43981348,-95.19944000
17.47981348,-95.19944000
17.51981348,-95.19944000
17.55981348,-95.19944000
17.59981348,-95.19944000
17.63981348,-95.19944000
17.67981348,-96.96341000
17.71981348,-95.19944000
17.75981348,-96.96341000
17.79981348,-95.19944000
17.83981348,-96.96341000
17.87981348,-96.96341000
17.91981348,-96.96341000
17.95981348,-96.96341000
17.99981348,-96.96341000
18.03981348,-96.96341000
18.07981348,-96.96341000
18.11981348,-96.96341000
18.15981348,-96.96341000
18.19981348,-96.96341000
18.23981348,-98.72738000
18.27981348,-98.72738000
18.31981348,-98.72738000
18.35981348,-98.72738000
18.39981348,-98.72738000
18.43981348,-98.72738000
18.47981348,-98.72738000
18.51981348,-98.72738000
18.55981348,-98.72738000
18.59981348,-98.72738000
18.63981348,-98.72738000
18.67981348,-98.72738000
18.71981348,-98.72738000
18.75981348,-98.72738000
18.79981347,-98.72738000
18.83981347,-98.72738000
18.87981347,-98.72738000
18.91981347,-98.72738000
18.95981347,-98.72738000
18.99981347,-98.72738000
19.03981347,-98.72738000
19.07981347,-98.72738000
19.11981347,-98.72738000
19.15981347,-98.72738000
19.19981347,-98.72738000
19.23981347,-96.96341000
19.27981347,-96.96341000
19.31981347,-96.96341000
19.35981347,-96.96341000
19.39981347,-96.96341000
19.43981347,-96.96341000
19.47981347,-96.96341000
19.51981347,-96.96341000
19.55981347,-96.96341000
19.59981347,-96.96341000
19.63981347,-96.96341000
19.67981347,-96.96341000
19.71981347,-96.96341000
19.75981347,-96.96341000
19.79981347,-96.96341000
19.83981347,-95.19944000
19.87981347,-95.19944000
19.91981347,-95.19944000
19.95981347,-95.19944000
19.99981347,-95.19944000
20.03981347,-93.43547000
20.07981347,-93.43547000
20.11981347,-91.67150000
20.15981347,-93.43547000
20.19981347,-91.67150000
20.23981347,-91.67150000
20.27981347,-91.67150000
20.31981347,-91.67150000
20.35981347,-91.67150000
20.39981347,-89.90753000
20.43981346,-89.90753000
20.47981346,-89.90753000
20.51981346,-89.90753000
20.55981346,-88.14356000
20.59981346,-88.14356000
20.63981346,-88.14356000
20.67981346,-88.14356000
20.71981346,-88.14356000
20.75981346,-88.14356000
20.79981346,-86.37959000
20.83981346,-84.61562000
20.87981346,-84.61562000
20.91981346,-84.61562000
20.95981346,-82.85165000
20.99981346,-84.61562000
21.03981346,-82.85165000
21.07981346,-82.85165000
21.11981346,-82.85165000
21.15981346,-82.85165000
21.19981346,-81.08157000
21.23981346,-81.08157000
21.27981346,-79.31760000
21.31981346,-79.31760000
21.35981346,-79.31760000
21.39981346,-77.55363000
21.43981346,-77.55363000
21.47981346,-77.55363000
21.51981346,-75.78967000
21.55981346,-75.78967000
21.59981346,-75.78967000
21.63981346,-74.02570000
21.67981346,-74.02570000
21.71981346,-74.02570000
21.75981346,-72.26173000
21.79981346,-70.49776000
21.83981346,-70.49776000
21.87981346,-70.49776000
21.91981346,-70.49776000
21.95981346,-68.73379000
21.99981346,-68.73379000
22.03981346,-68.73379000
22.07981345,-66.96982000
22.11981345,-66.96982000
22.15981345,-65.20585000
22.19981345,-63.44188000
22.23981345,-63.44188000
22.27981345,-61.67791000
22.31981345,-61.67791000
22.35981345,-61.67791000
22.39981345,-61.67791000
22.43981345,-59.91394000
22.47981345,-59.91394000
22.51981345,-58.14997000
22.55981345,-56.38600000
22.59981345,-56.38600000
22.63981345,-56.38600000
22.67981345,-54.62203000
22.71981345,-54.62203000
22.75981345,-54.62203000
22.79981345,-52.85195000
22.83981345,-52.85195000
22.87981345,-51.08798000
22.91981345,-49.32401000
22.95981345,-49.32401000
22.99981345,-49.32401000
23.03981345,-47.56004000
23.07981345,-47.56004000
23.11981345,-47.56004000
23.15981345,-45.79607000
23.19981345,-45.79607000
23.23981345,-42.26814000
23.27981345,-42.26814000
23.31981345,-40.50417000
23.35981345,-40.50417000
23.39981345,-40.50417000
23.43981345,-38.74020000
23.47981345,-38.74020000
23.51981345,-36.97623000
23.55981345,-36.97623000
23.59981345,-35.21225000
23.63981345,-35.21225000
23.67981345,-33.44828000
23.71981344,-33.44828000
23.75981344,-33.44828000
23.79981344,-31.68431000
23.83981344,-29.92035000
23.87981344,-28.15638000
23.91981344,-28.15638000
23.95981344,-26.39241000
23.99981344,-26.39241000
24.03981344,-26.39241000
24.07981344,-24.62233000
24.11981344,-24.62233000
24.15981344,-22.85836000
24.19981344,-21.09439000
24.23981344,-19.33042000
24.27981344,-19.33042000
24.31981344,-19.33042000
24.35981344,-19.33042000
24.39981344,-17.56645000
24.43981344,-17.56645000
24.47981344,-14.03851000
24.51981344,-14.03851000
24.55981344,-12.27454000
24.59981344,-14.03851000
24.63981344,-10.51057000
24.67981344,-10.51057000
24.71981344,-8.74660500
24.75981344,-6.98263500
24.79981344,-6.98263500
24.83981344,-5.21866500
24.87981344,-5.21866500
24.91981344,-5.21866500
24.95981344,-3.45469500
24.99981344,-3.45469500
25.03981344,0.07324442
25.07981344,0.07324442
25.11981344,1.83721400
25.15981344,1.83721400
25.19981344,1.83721400
25.23981344,3.60118400
25.27981344,3.60118400
25.31981344,5.36515400
25.35981343,7.12912400
25.39981343,7.12912400
25.43981343,8.89309300
25.47981343,8.89309300
25.51981343,10.65706000
25.55981343,10.65706000
25.59981343,12.42103000
25.63981343,14.18500000
25.67981343,14.18500000
25.71981343,15.94897000
25.75981343,15.94897000
25.79981343,15.94897000
25.83981343,17.71294000
25.87981343,17.71294000
25.91981343,19.47691000
25.95981343,21.24088000
25.99981343,21.24088000
26.03981343,21.24088000
26.07981343,23.00485000
26.11981343,24.76882000
26.15981343,24.76882000
26.19981343,26.53279000
26.23981343,28.29676000
26.27981343,28.29676000
26.31981343,30.06684000
26.35981343,30.06684000
26.39981343,30.06684000
26.43981343,31.83080000
26.47981343,31.83080000
26.51981343,33.59477000
26.55981343,35.35874000
26.59981343,35.35874000
26.63981343,37.12271000
26.67981343,37.12271000
26.71981343,38.88668000
26.75981343,38.88668000
26.79981343,38.88668000
26.83981343,38.88668000
26.87981343,42.41463000
26.91981343,42.41463000
26.95981343,44.17860000
26.99981343,44.17860000
27.03981342,44.17860000
27.07981342,44.17860000
27.11981342,45.94257000
27.15981342,47.70654000
27.19981342,47.70654000
27.23981342,49.47050000
27.27981342,49.47050000
27.31981342,51.23447000
27.35981342,51.23447000
27.39981342,52.99844000
27.43981342,51.23447000
27.47981342,52.99844000
27.51981342,54.76241000
27.55981342,54.76241000
27.59981342,56.52638000
27.63981342,56.52638000
27.67981342,58.29646000
27.71981342,58.29646000
27.75981342,58.29646000
27.79981342,60.06042000
27.83981342,60.06042000
27.87981342,60.06042000
27.91981342,61.82440000
27.95981342,61.82440000
27.99981342,63.58836000
28.03981342,63.58836000
28.07981342,65.35233000
28.11981342,65.35233000
28.15981342,65.35233000
28.19981342,67.11631000
28.23981342,67.11631000
28.27981342,68.88028000
28.31981342,68.88028000
28.35981342,70.64425000
28.39981342,70.64425000
28.43981342,70.64425000
28.47981342,72.40822000
28.51981342,70.64425000
28.55981342,72.40822000
28.59981342,72.40822000
28.63981342,72.40822000
28.67981341,74.17219000
28.71981341,74.17219000
28.75981341,75.93616000
28.79981341,75.93616000
28.83981341,77.70013000
28.87981341,77.70013000
28.91981341,77.70013000
28.95981341,79.46410000
28.99981341,79.46410000
29.03981341,79.46410000
29.07981341,79.46410000
29.11981341,79.46410000
29.15981341,79.46410000
29.19981341,81.22807000
29.23981341,81.22807000
29.27981341,81.22807000
29.31981341,81.22807000
29.35981341,82.99203000
29.39981341,82.99203000
29.43981341,82.99203000
29.47981341,84.75600000
29.51981341,84.75600000
29.55981341,84.75600000
29.59981341,84.75600000
29.63981341,86.52608000
29.67981341,86.52608000
29.71981341,86.52608000
29.75981341,86.52608000
29.79981341,86.52608000
29.83981341,86.52608000
29.87981341,86.52608000
29.91981341,88.29005000
29.95981341,88.29005000
29.99981341,88.29005000
30.03981341,88.29005000
30.07981341,88.29005000
30.11981341,90.05402000
30.15981341,88.29005000
30.19981341,90.05402000
30.23981341,90.05402000
30.27981341,90.05402000
30.31981340,90.05402000
30.35981340,90.05402000
30.39981340,91.81799000
30.43981340,91.81799000
30.47981340,90.05402000
30.51981340,91.81799000
30.55981340,91.81799000
30.59981340,91.81799000
30.63981340,91.81799000
30.67981340,91.81799000
30.71981340,91.81799000
30.75981340,93.58195000
30.79981340,93.58195000
30.83981340,93.58195000
30.87981340,91.81799000
30.91981340,91.81799000
30.95981340,93.58195000
30.99981340,93.58195000
31.03981340,91.81799000
31.07981340,93.58195000
31.11981340,93.58195000
31.15981340,93.58195000
31.19981340,93.58195000
31.23981340,93.58195000
31.27981340,93.58195000
31.31981340,93.58195000
31.35981340,93.58195000
31.39981340,93.58195000
31.43981340,93.58195000
31.47981340,93.58195000
31.51981340,93.58195000
31.55981340,93.58195000
31.59981340,93.58195000
31.63981340,93.58195000
31.67981340,91.81799000
31.71981340,91.81799000
31.75981340,91.81799000
31.79981340,91.81799000
31.83981340,91.81799000
31.87981340,91.81799000
31.91981340,91.81799000
31.95981339,91.81799000
31.99981339,91.81799000
32.03981339,90.05402000
32.07981339,90.05402000
32.11981339,91.81799000
32.15981339,90.05402000
32.19981339,90.05402000
32.23981339,90.05402000
32.27981339,88.29005000
32.31981339,88.29005000
32.35981339,90.05402000
32.39981339,88.29005000
32.43981339,88.29005000
32.47981339,88.29005000
32.51981339,88.29005000
32.55981339,86.52608000
32.59981339,86.52608000
32.63981339,86.52608000
32.67981339,86.52608000
32.71981339,86.52608000
32.75981339,86.52608000
32.79981339,84.75600000
32.83981339,84.75600000
32.87981339,84.75600000
32.91981339,84.75600000
32.95981339,84.75600000
32.99981339,82.99203000
33.03981339,82.99203000
33.07981339,82.99203000
33.11981339,82.99203000
33.15981339,81.22807000
33.19981339,81.22807000
33.23981339,79.46410000
33.27981339,79.46410000
33.31981339,79.46410000
33.35981339,79.46410000
33.39981339,79.46410000
33.43981339,79.46410000
33.47981339,77.70013000
33.51981339,77.70013000
33.55981339,77.70013000
33.59981338,75.93616000
33.63981338,75.93616000
33.67981338,75.93616000
33.71981338,74.17219000
33.75981338,74.17219000
33.79981338,74.17219000
33.83981338,72.40822000
33.87981338,72.40822000
33.91981338,72.40822000
33.95981338,72.40822000
33.99981338,70.64425000
34.03981338,70.64425000
34.07981338,70.64425000
34.11981338,67.11631000
34.15981338,67.11631000
34.19981338,67.11631000
34.23981338,65.35233000
34.27981338,65.35233000
34.31981338,65.35233000
34.35981338,63.58836000
34.39981338,63.58836000
34.43981338,63.58836000
34.47981338,61.82440000
34.51981338,61.82440000
34.55981338,60.06042000
34.59981338,60.06042000
34.63981338,58.29646000
34.67981338,58.29646000
34.71981338,58.29646000
34.75981338,58.29646000
34.79981338,56.52638000
34.83981338,56.52638000
34.87981338,54.76241000
34.91981338,54.76241000
34.95981338,52.99844000
34.99981338,51.23447000
35.03981338,51.23447000
35.07981338,51.23447000
35.11981338,51.23447000
35.15981338,49.47050000
35.19981338,49.47050000
35.23981337,47.70654000
35.27981337,45.94257000
35.31981337,45.94257000
35.35981337,44.17860000
35.39981337,44.17860000
35.43981337,44.17860000
35.47981337,44.17860000
35.51981337,42.41463000
35.55981337,42.41463000
35.59981337,38.88668000
35.63981337,38.88668000
35.67981337,37.12271000
35.71981337,37.12271000
35.75981337,37.12271000
35.79981337,35.35874000
35.83981337,35.35874000
35.87981337,35.35874000
35.91981337,33.59477000
35.95981337,31.83080000
35.99981337,31.83080000
36.03981337,30.06684000
36.07981337,30.06684000
36.11981337,28.29676000
36.15981337,28.29676000
36.19981337,26.53279000
36.23981337,24.76882000
36.27981337,24.76882000
36.31981337,24.76882000
36.35981337,23.00485000
36.39981337,23.00485000
36.43981337,23.00485000
36.47981337,21.24088000
36.51981337,21.24088000
36.55981337,19.47691000
36.59981337,17.71294000
36.63981337,17.71294000
36.67981337,15.94897000
36.71981337,15.94897000
36.75981337,14.18500000
36.79981337,14.18500000
36.83981337,12.42103000
36.87981336,10.65706000
36.91981336,8.89309300
36.95981336,8.89309300
36.99981336,8.89309300
37.03981336,7.12912400
37.07981336,7.12912400
37.11981336,5.36515400
37.15981336,3.60118400
37.19981336,3.60118400
37.23981336,1.83721400
37.27981336,1.83721400
37.31981336,0.07324442
37.35981336,0.07324442
37.39981336,0.07324442
37.43981336,-3.45469500
37.47981336,-3.45469500
37.51981336,-5.21866500
37.55981336,-5.21866500
37.59981336,-6.98263500
37.63981336,-6.98263500
37.67981336,-8.74660500
37.71981336,-8.74660500
37.75981336,-10.51057000
37.79981336,-12.27454000
37.83981336,-12.27454000
37.87981336,-14.03851000
37.91981336,-14.03851000
37.95981336,-14.03851000
37.99981336,-15.80248000
38.03981336,-17.56645000
38.07981336,-17.56645000
38.11981336,-19.33042000
38.15981336,-19.33042000
38.19981336,-21.09439000
38.23981336,-21.09439000
38.27981336,-22.85836000
38.31981336,-24.62233000
38.35981336,-24.62233000
38.39981336,-26.39241000
38.43981336,-26.39241000
38.47981336,-26.39241000
38.51981336,-28.15638000
38.55981335,-28.15638000
38.59981335,-29.92035000
38.63981335,-31.68431000
38.67981335,-31.68431000
38.71981335,-33.44828000
38.75981335,-33.44828000
38.79981335,-35.21225000
38.83981335,-35.21225000
38.87981335,-36.97623000
38.91981335,-38.74020000
38.95981335,-38.74020000
38.99981335,-38.74020000
39.03981335,-40.50417000
39.07981335,-40.50417000
39.11981335,-40.50417000
39.15981335,-42.26814000
39.19981335,-42.26814000
39.23981335,-45.79607000
39.27981335,-45.79607000
39.31981335,-47.56004000
39.35981335,-47.56004000
39.39981335,-49.32401000
39.43981335,-47.56004000
39.47981335,-49.32401000
39.51981335,-49.32401000
39.55981335,-51.08798000
39.59981335,-52.85195000
39.63981335,-54.62203000
39.67981335,-54.62203000
39.71981335,-54.62203000
39.75981335,-54.62203000
39.79981335,-56.38600000
39.83981335,-56.38600000
39.87981335,-56.38600000
39.91981335,-59.91394000
39.95981335,-59.91394000
39.99981335,-61.67791000
40.03981335,-61.67791000
40.07981335,-61.67791000
40.11981335,-61.67791000
40.15981335,-63.44188000
40.19981334,-63.44188000
40.23981334,-65.20585000
40.27981334,-65.20585000
40.31981334,-66.96982000
40.35981334,-66.96982000
40.39981334,-68.73379000
40.43981334,-68.73379000
40.47981334,-68.73379000
40.51981334,-68.73379000
40.55981334,-70.49776000
40.59981334,-70.49776000
40.63981334,-70.49776000
40.67981334,-74.02570000
40.71981334,-72.26173000
40.75981334,-74.02570000
40.79981334,-74.02570000
40.83981334,-75.78967000
40.87981334,-75.78967000
40.91981334,-75.78967000
40.95981334,-75.78967000
40.99981334,-77.55363000
41.03981334,-77.55363000
41.07981334,-79.31760000
41.11981334,-79.31760000
41.15981334,-81.08157000
41.19981334,-81.08157000
41.23981334,-81.08157000
41.27981334,-82.85165000
41.31981334,-82.85165000
41.35981334,-82.85165000
41.39981334,-82.85165000
41.43981334,-84.61562000
41.47981334,-82.85165000
41.51981334,-84.61562000
41.55981334,-84.61562000
41.59981334,-84.61562000
41.63981334,-84.61562000
41.67981334,-88.14356000
41.71981334,-88.14356000
41.75981334,-88.14356000
41.79981334,-88.14356000
41.83981333,-89.90753000
41.87981333,-89.90753000
41.91981333,-89.90753000
41.95981333,-89.90753000
41.99981333,-89.90753000
42.03981333,-91.67150000
42.07981333,-91.67150000
42.11981333,-91.67150000
42.15981333,-91.67150000
42.19981333,-91.67150000
42.23981333,-91.67150000
42.27981333,-91.67150000
42.31981333,-91.67150000
42.35981333,-93.43547000
42.39981333,-95.19944000
42.43981333,-93.43547000
42.47981333,-95.19944000
42.51981333,-95.19944000
42.55981333,-95.19944000
42.59981333,-95.19944000
42.63981333,-95.19944000
42.67981333,-95.19944000
42.71981333,-96.96341000
42.75981333,-96.96341000
42.79981333,-96.96341000
42.83981333,-96.96341000
42.87981333,-96.96341000
42.91981333,-96.96341000
42.95981333,-96.96341000
42.99981333,-96.96341000
43.03981333,-96.96341000
43.07981333,-96.96341000
43.11981333,-96.96341000
43.15981333,-96.96341000
43.19981333,-96.96341000
43.23981333,-98.72738000
43.27981333,-98.72738000
43.31981333,-98.72738000
43.35981333,-98.72738000
43.39981333,-98.72738000
43.43981333,-98.72738000
43.47981332,-98.72738000
43.51981332,-98.72738000
43.55981332,-98.72738000
43.59981332,-98.72738000
43.63981332,-98.72738000
43.67981332,-98.72738000
43.71981332,-98.72738000
43.75981332,-98.72738000
43.79981332,-98.72738000
43.83981332,-98.72738000
43.87981332,-98.72738000
43.91981332,-98.72738000
43.95981332,-98.72738000
43.99981332,-96.96341000
44.03981332,-98.72738000
44.07981332,-98.72738000
44.11981332,-98.72738000
44.15981332,-98.72738000
44.19981332,-98.72738000
44.23981332,-96.96341000
44.27981332,-96.96341000
44.31981332,-96.96341000
44.35981332,-96.96341000
44.39981332,-96.96341000
44.43981332,-96.96341000
44.47981332,-96.96341000
44.51981332,-96.96341000
44.55981332,-96.96341000
44.59981332,-96.96341000
44.63981332,-96.96341000
44.67981332,-96.96341000
44.71981332,-96.96341000
44.75981332,-96.96341000
44.79981332,-95.19944000
44.83981332,-95.19944000
44.87981332,-95.19944000
44.91981332,-95.19944000
44.95981332,-95.19944000
44.99981332,-95.19944000
45.03981332,-93.43547000
45.07981332,-93.43547000
45.11981331,-91.67150000
45.15981331,-91.67150000
45.19981331,-91.67150000
45.23981331,-91.67150000
45.27981331,-91.67150000
45.31981331,-91.67150000
45.35981331,-91.67150000
45.39981331,-89.90753000
45.43981331,-89.90753000
45.47981331,-89.90753000
45.51981331,-89.90753000
45.55981331,-88.14356000
45.59981331,-88.14356000
45.63981331,-88.14356000
45.67981331,-88.14356000
45.71981331,-88.14356000
45.75981331,-86.37959000
45.79981331,-86.37959000
45.83981331,-84.61562000
45.87981331,-84.61562000
45.91981331,-84.61562000
45.95981331,-84.61562000
45.99981331,-82.85165000
46.03981331,-82.85165000
46.07981331,-82.85165000
46.11981331,-82.85165000
46.15981331,-82.85165000
46.19981331,-81.08157000
46.23981331,-81.08157000
46.27981331,-79.31760000
46.31981331,-79.31760000
46.35981331,-79.31760000
46.39981331,-77.55363000
46.43981331,-77.55363000
46.47981331,-77.55363000
46.51981331,-75.78967000
46.55981331,-75.78967000
46.59981331,-75.78967000
46.63981331,-75.78967000
46.67981331,-74.02570000
46.71981331,-74.02570000
46.75981330,-74.02570000
46.79981330,-70.49776000
46.83981330,-70.49776000
46.87981330,-70.49776000
46.91981330,-70.49776000
46.95981330,-68.73379000
46.99981330,-68.73379000
47.03981330,-68.73379000
47.07981330,-66.96982000
47.11981330,-65.20585000
47.15981330,-65.20585000
47.19981330,-63.44188000
47.23981330,-63.44188000
47.27981330,-61.67791000
47.31981330,-61.67791000
47.35981330,-61.67791000
47.39981330,-61.67791000
47.43981330,-59.91394000
47.47981330,-61.67791000
47.51981330,-59.91394000
47.55981330,-56.38600000
47.59981330,-56.38600000
47.63981330,-56.38600000
47.67981330,-54.62203000
47.71981330,-54.62203000
47.75981330,-52.85195000
47.79981330,-52.85195000
47.83981330,-52.85195000
47.87981330,-51.08798000
47.91981330,-51.08798000
47.95981330,-49.32401000
47.99981330,-49.32401000
48.03981330,-47.56004000
48.07981330,-47.56004000
48.11981330,-45.79607000
48.15981330,-45.79607000
48.19981330,-44.03210000
48.23981330,-44.03210000
48.27981330,-40.50417000
48.31981330,-40.50417000
48.35981330,-40.50417000
48.39981329,-40.50417000
48.43981329,-38.74020000
48.47981329,-36.97623000
48.51981329,-35.21225000
48.55981329,-35.21225000
48.59981329,-35.21225000
48.63981329,-33.44828000
48.67981329,-33.44828000
48.71981329,-33.44828000
48.75981329,-31.68431000
48.79981329,-29.92035000
48.83981329,-29.92035000
48.87981329,-28.15638000
48.91981329,-28.15638000
48.95981329,-26.39241000
48.99981329,-26.39241000
49.03981329,-26.39241000
49.07981329,-26.39241000
49.11981329,-24.62233000
49.15981329,-22.85836000
49.19981329,-21.09439000
49.23981329,-21.09439000
49.27981329,-19.33042000
49.31981329,-19.33042000
49.35981329,-19.33042000
49.39981329,-17.56645000
49.43981329,-15.80248000
49.47981329,-14.03851000
49.51981329,-14.03851000
49.55981329,-12.27454000
49.59981329,-12.27454000
49.63981329,-12.27454000
49.67981329,-10.51057000
49.71981329,-8.74660500
49.75981329,-6.98263500
49.79981329,-6.98263500
49.83981329,-5.21866500
49.87981329,-5.21866500
49.91981329,-3.45469500
49.95981329,-3.45469500
49.99981329,-1.69072500
50.03981328,0.07324442
50.07981328,0.07324442
50.11981328,1.83721400
50.15981328,1.83721400
50.19981328,1.83721400
50.23981328,3.60118400
50.27981328,3.60118400
50.31981328,7.12912400
50.35981328,7.12912400
50.39981328,7.12912400
50.43981328,8.89309300
50.47981328,8.89309300
50.51981328,10.65706000
50.55981328,10.65706000
50.59981328,12.42103000
50.63981328,14.18500000
50.67981328,14.18500000
50.71981328,15.94897000
50.75981328,15.94897000
50.79981328,17.71294000
50.83981328,17.71294000
50.87981328,17.71294000
50.91981328,19.47691000
50.95981328,21.24088000
50.99981328,23.00485000
51.03981328,23.00485000
51.07981328,24.76882000
51.11981328,24.76882000
51.15981328,24.76882000
51.19981328,24.76882000
51.23981328,28.29676000
51.27981328,28.29676000
51.31981328,30.06684000
51.35981328,30.06684000
51.39981328,30.06684000
51.43981328,31.83080000
51.47981328,33.59477000
51.51981328,35.35874000
51.55981328,35.35874000
51.59981328,35.35874000
51.63981328,37.12271000
51.67981328,37.12271000
51.71981327,37.12271000
51.75981327,38.88668000
51.79981327,38.88668000
51.83981327,40.65065000
51.87981327,42.41463000
51.91981327,42.41463000
51.95981327,44.17860000
51.99981327,44.17860000
52.03981327,44.17860000
52.07981327,44.17860000
52.11981327,45.94257000
52.15981327,47.70654000
52.19981327,49.47050000
52.23981327,49.47050000
52.27981327,49.47050000
52.31981327,51.23447000
52.35981327,51.23447000
52.39981327,52.99844000
52.43981327,52.99844000
52.47981327,52.99844000
52.51981327,56.52638000
52.55981327,56.52638000
52.59981327,56.52638000
52.63981327,56.52638000
52.67981327,58.29646000
52.71981327,58.29646000
52.75981327,58.29646000
52.79981327,60.06042000
52.83981327,60.06042000
52.87981327,60.06042000
52.91981327,61.82440000
52.95981327,63.58836000
52.99981327,63.58836000
53.03981327,65.35233000
53.07981327,65.35233000
53.11981327,65.35233000
53.15981327,65.35233000
53.19981327,65.35233000
53.23981327,67.11631000
53.27981327,67.11631000
53.31981327,68.88028000
53.35981326,70.64425000
53.39981326,70.64425000
53.43981326,70.64425000
53.47981326,72.40822000
53.51981326,72.40822000
53.55981326,72.40822000
53.59981326,72.40822000
53.63981326,74.17219000
53.67981326,74.17219000
53.71981326,75.93616000
53.75981326,75.93616000
53.79981326,75.93616000
53.83981326,77.70013000
53.87981326,77.70013000
53.91981326,77.70013000
53.95981326,77.70013000
53.99981326,79.46410000
54.03981326,79.46410000
54.07981326,79.46410000
54.11981326,79.46410000
54.15981326,79.46410000
54.19981326,81.22807000
54.23981326,81.22807000
54.27981326,81.22807000
54.31981326,82.99203000
54.35981326,84.75600000
54.39981326,84.75600000
54.43981326,84.75600000
54.47981326,84.75600000
54.51981326,86.52608000
54.55981326,86.52608000
54.59981326,84.75600000
54.63981326,86.52608000
54.67981326,86.52608000
54.71981326,86.52608000
54.75981326,86.52608000
54.79981326,86.52608000
54.83981326,86.52608000
54.87981326,86.52608000
54.91981326,86.52608000
54.95981326,88.29005000
54.99981325,88.29005000
55.03981325,88.29005000
55.07981325,88.29005000
55.11981325,88.29005000
55.15981325,90.05402000
55.19981325,90.05402000
55.23981325,90.05402000
55.27981325,90.05402000
55.31981325,91.81799000
55.35981325,91.81799000
55.39981325,91.81799000
55.43981325,91.81799000
55.47981325,91.81799000
55.51981325,91.81799000
55.55981325,91.81799000
55.59981325,91.81799000
55.63981325,91.81799000
55.67981325,91.81799000
55.71981325,91.81799000
55.75981325,91.81799000
55.79981325,93.58195000
55.83981325,93.58195000
55.87981325,91.81799000
55.91981325,93.58195000
55.95981325,93.58195000
55.99981325,93.58195000
56.03981325,93.58195000
56.07981325,93.58195000
56.11981325,93.58195000
56.15981325,93.58195000
56.19981325,93.58195000
56.23981325,93.58195000
56.27981325,93.58195000
56.31981325,93.58195000
56.35981325,93.58195000
56.39981325,93.58195000
56.43981325,93.58195000
56.47981325,93.58195000
56.51981325,93.58195000
56.55981325,93.58195000
56.59981325,91.81799000
56.63981324,91.81799000
56.67981324,91.81799000
56.71981324,91.81799000
56.75981324,93.58195000
56.79981324,91.81799000
56.83981324,91.81799000
56.87981324,91.81799000
56.91981324,91.81799000
56.95981324,91.81799000
56.99981324,91.81799000
57.03981324,91.81799000
57.07981324,91.81799000
57.11981324,91.81799000
57.15981324,90.05402000
57.19981324,90.05402000
57.23981324,88.29005000
57.27981324,90.05402000
57.31981324,88.29005000
57.35981324,88.29005000
57.39981324,88.29005000
57.43981324,88.29005000
57.47981324,88.29005000
57.51981324,88.29005000
57.55981324,86.52608000
57.59981324,86.52608000
57.63981324,86.52608000
57.67981324,86.52608000
57.71981324,86.52608000
57.75981324,86.52608000
57.79981324,86.52608000
57.83981324,84.75600000
57.87981324,86.52608000
57.91981324,84.75600000
57.95981324,84.75600000
57.99981324,84.75600000
58.03981324,84.75600000
58.07981324,82.99203000
58.11981324,81.22807000
58.15981324,81.22807000
58.19981324,81.22807000
58.23981324,81.22807000
58.27981323,81.22807000
58.31981323,79.46410000
58.35981323,79.46410000
58.39981323,79.46410000
58.43981323,79.46410000
58.47981323,77.70013000
58.51981323,77.70013000
58.55981323,77.70013000
58.59981323,77.70013000
58.63981323,77.70013000
58.67981323,75.93616000
58.71981323,74.17219000
58.75981323,74.17219000
58.79981323,74.17219000
58.83981323,72.40822000
58.87981323,72.40822000
58.91981323,72.40822000
58.95981323,72.40822000
58.99981323,70.64425000
59.03981323,70.64425000
59.07981323,68.88028000
59.11981323,67.11631000
59.15981323,67.11631000
59.19981323,67.11631000
59.23981323,67.11631000
59.27981323,65.35233000
59.31981323,65.35233000
59.35981323,65.35233000
59.39981323,63.58836000
59.43981323,63.58836000
59.47981323,63.58836000
59.51981323,61.82440000
59.55981323,63.58836000
59.59981323,60.06042000
59.63981323,58.29646000
59.67981323,58.29646000
59.71981323,58.29646000
59.75981323,58.29646000
59.79981323,56.52638000
59.83981323,56.52638000
59.87981323,56.52638000
59.91981322,54.76241000
59.95981322,52.99844000
59.99981322,52.99844000
60.03981322,51.23447000
60.07981322,51.23447000
60.11981322,51.23447000
60.15981322,51.23447000
60.19981322,49.47050000
60.23981322,49.47050000
60.27981322,47.70654000
60.31981322,45.94257000
60.35981322,45.94257000
60.39981322,44.17860000
60.43981322,44.17860000
60.47981322,44.17860000
60.51981322,42.41463000
60.55981322,42.41463000
60.59981322,40.65065000
60.63981322,38.88668000
60.67981322,38.88668000
60.71981322,37.12271000
60.75981322,37.12271000
60.79981322,37.12271000
60.83981322,35.35874000
60.87981322,35.35874000
60.91981322,33.59477000
60.95981322,33.59477000
60.99981322,31.83080000
61.03981322,30.06684000
61.07981322,30.06684000
61.11981322,30.06684000
61.15981322,28.29676000
61.19981322,28.29676000
61.23981322,26.53279000
61.27981322,24.76882000
61.31981322,24.76882000
61.35981322,23.00485000
61.39981322,23.00485000
61.43981322,21.24088000
61.47981322,21.24088000
61.51981322,21.24088000
61.55981321,19.47691000
61.59981321,17.71294000
61.63981321,15.94897000
61.67981321,15.94897000
61.71981321,15.94897000
61.75981321,15.94897000
61.79981321,14.18500000
61.83981321,12.42103000
61.87981321,10.65706000
61.91981321,8.89309300
61.95981321,8.89309300
61.99981321,8.89309300
62.03981321,7.12912400
62.07981321,7.12912400
62.11981321,5.36515400
62.15981321,3.60118400
62.19981321,3.60118400
62.23981321,1.83721400
62.27981321,1.83721400
62.31981321,1.83721400
62.35981321,0.07324442
62.39981321,0.07324442
62.43981321,-1.69072500
62.47981321,-3.45469500
62.51981321,-5.21866500
62.55981321,-5.21866500
62.59981321,-5.21866500
62.63981321,-6.98263500
62.67981321,-6.98263500
62.71981321,-8.74660500
62.75981321,-10.51057000
62.79981321,-12.27454000
62.83981321,-12.27454000
62.87981321,-12.27454000
62.91981321,-14.03851000
62.95981321,-14.03851000
62.99981321,-15.80248000
63.03981321,-17.56645000
63.07981321,-17.56645000
63.11981321,-19.33042000
63.15981321,-19.33042000
63.19981321,-19.33042000
63.23981320,-21.09439000
63.27981320,-21.09439000
63.31981320,-22.85836000
63.35981320,-24.62233000
63.39981320,-24.62233000
63.43981320,-26.39241000
63.47981320,-26.39241000
63.51981320,-28.15638000
63.55981320,-28.15638000
63.59981320,-29.92035000
63.63981320,-31.68431000
63.67981320,-31.68431000
63.71981320,-33.44828000
63.75981320,-33.44828000
63.79981320,-33.44828000
63.83981320,-35.21225000
63.87981320,-35.21225000
63.91981320,-38.74020000
63.95981320,-38.74020000
63.99981320,-38.74020000
64.03981320,-40.50417000
64.07981320,-40.50417000
64.11981320,-42.26814000
64.15981320,-42.26814000
64.19981320,-42.26814000
64.23981320,-44.03210000
64.27981320,-45.79607000
64.31981320,-45.79607000
64.35981320,-47.56004000
64.39981320,-47.56004000
64.43981320,-49.32401000
64.47981320,-49.32401000
64.51981320,-51.08798000
64.55981320,-51.08798000
64.59981320,-52.85195000
64.63981320,-52.85195000
64.67981320,-54.62203000
64.71981320,-54.62203000
64.75981320,-54.62203000
64.79981320,-54.62203000
64.83981320,-56.38600000
64.87981319,-58.14997000
64.91981319,-58.14997000
64.95981319,-59.91394000
64.99981319,-59.91394000
65.03981319,-61.67791000
65.07981319,-61.67791000
65.11981319,-61.67791000
65.15981319,-61.67791000
65.19981319,-63.44188000
65.23981319,-63.44188000
65.27981319,-65.20585000
65.31981319,-66.96982000
65.35981319,-66.96982000
65.39981319,-68.73379000
65.43981319,-68.73379000
65.47981319,-68.73379000
65.51981319,-68.73379000
65.55981319,-70.49776000
65.59981319,-70.49776000
65.63981319,-72.26173000
65.67981319,-72.26173000
65.71981319,-74.02570000
65.75981319,-74.02570000
65.79981319,-74.02570000
65.83981319,-75.78967000
65.87981319,-75.78967000
65.91981319,-75.78967000
65.95981319,-75.78967000
65.99981319,-77.55363000
66.03981319,-77.55363000
66.07981319,-77.55363000
66.11981319,-79.31760000
66.15981319,-79.31760000
66.19981319,-81.08157000
66.23981319,-81.08157000
66.27981319,-81.08157000
66.31981319,-82.85165000
66.35981319,-82.85165000
66.39981319,-82.85165000
66.43981319,-82.85165000
66.47981319,-82.85165000
66.51981318,-82.85165000
66.55981318,-84.61562000
66.59981318,-86.37959000
66.63981318,-84.61562000
66.67981318,-84.61562000
66.71981318,-86.37959000
66.75981318,-88.14356000
66.79981318,-88.14356000
66.83981318,-88.14356000
66.87981318,-88.14356000
66.91981318,-89.90753000
66.95981318,-89.90753000
66.99981318,-89.90753000
67.03981318,-89.90753000
67.07981318,-89.90753000
67.11981318,-91.67150000
67.15981318,-91.67150000
67.19981318,-91.67150000
67.23981318,-91.67150000
67.27981318,-91.67150000
67.31981318,-93.43547000
67.35981318,-91.67150000
67.39981318,-93.43547000
67.43981318,-93.43547000
67.47981318,-93.43547000
67.51981318,-95.19944000
67.55981318,-95.19944000
67.59981318,-95.19944000
67.63981318,-96.96341000
67.67981318,-96.96341000
67.71981318,-95.19944000
67.75981318,-96.96341000
67.79981318,-96.96341000
67.83981318,-96.96341000
67.87981318,-96.96341000
67.91981318,-96.96341000
67.95981318,-96.96341000
67.99981318,-96.96341000
68.03981318,-96.96341000
68.07981318,-96.96341000
68.11981318,-96.96341000
68.15981317,-96.96341000
68.19981317,-96.96341000
68.23981317,-96.96341000
68.27981317,-98.72738000
68.31981317,-98.72738000
68.35981317,-96.96341000
68.39981317,-98.72738000
68.43981317,-98.72738000
68.47981317,-98.72738000
68.51981317,-98.72738000
68.55981317,-98.72738000
68.59981317,-98.72738000
68.63981317,-98.72738000
68.67981317,-98.72738000
68.71981317,-98.72738000
68.75981317,-98.72738000
68.79981317,-98.72738000
68.83981317,-98.72738000
68.87981317,-98.72738000
68.91981317,-98.72738000
68.95981317,-98.72738000
68.99981317,-98.72738000
69.03981317,-96.96341000
69.07981317,-98.72738000
69.11981317,-96.96341000
69.15981317,-96.96341000
69.19981317,-96.96341000
69.23981317,-96.96341000
69.27981317,-96.96341000
69.31981317,-96.96341000
69.35981317,-96.96341000
69.39981317,-96.96341000
69.43981317,-96.96341000
69.47981317,-96.96341000
69.51981317,-96.96341000
69.55981317,-96.96341000
69.59981317,-96.96341000
69.63981317,-96.96341000
69.67981317,-96.96341000
69.71981317,-96.96341000
69.75981317,-95.19944000
69.79981316,-95.19944000
69.83981316,-95.19944000
69.87981316,-95.19944000
69.91981316,-95.19944000
69.95981316,-95.19944000
69.99981316,-93.43547000
70.03981316,-93.43547000
70.07981316,-93.43547000
70.11981316,-91.67150000
70.15981316,-91.67150000
70.19981316,-93.43547000
70.23981316,-91.67150000
70.27981316,-91.67150000
70.31981316,-91.67150000
70.35981316,-89.90753000
70.39981316,-89.90753000
70.43981316,-89.90753000
70.47981316,-89.90753000
70.51981316,-89.90753000
70.55981316,-88.14356000
70.59981316,-88.14356000
70.63981316,-88.14356000
70.67981316,-88.14356000
70.71981316,-86.37959000
70.75981316,-84.61562000
70.79981316,-86.37959000
70.83981316,-84.61562000
70.87981316,-84.61562000
70.91981316,-84.61562000
70.95981316,-84.61562000
70.99981316,-82.85165000
71.03981316,-82.85165000
71.07981316,-82.85165000
71.11981316,-82.85165000
71.15981316,-81.08157000
71.19981316,-81.08157000
71.23981316,-81.08157000
71.27981316,-79.31760000
71.31981316,-77.55363000
71.35981316,-79.31760000
71.39981316,-77.55363000
71.43981315,-77.55363000
71.47981315,-77.55363000
71.51981315,-75.78967000
71.55981315,-75.78967000
71.59981315,-74.02570000
71.63981315,-74.02570000
71.67981315,-74.02570000
71.71981315,-74.02570000
71.75981315,-72.26173000
71.79981315,-70.49776000
71.83981315,-70.49776000
71.87981315,-70.49776000
71.91981315,-68.73379000
71.95981315,-68.73379000
71.99981315,-68.73379000
72.03981315,-66.96982000
72.07981315,-66.96982000
72.11981315,-65.20585000
72.15981315,-63.44188000
72.19981315,-63.44188000
72.23981315,-63.44188000
72.27981315,-63.44188000
72.31981315,-61.67791000
72.35981315,-61.67791000
72.39981315,-61.67791000
72.43981315,-59.91394000
72.47981315,-59.91394000
72.51981315,-58.14997000
72.55981315,-56.38600000
72.59981315,-56.38600000
72.63981315,-54.62203000
72.67981315,-54.62203000
72.71981315,-54.62203000
72.75981315,-54.62203000
72.79981315,-52.85195000
72.83981315,-52.85195000
72.87981315,-51.08798000
72.91981315,-51.08798000
72.95981315,-49.32401000
72.99981315,-47.56004000
73.03981315,-47.56004000
73.07981314,-47.56004000
73.11981314,-45.79607000
73.15981314,-45.79607000
73.19981314,-42.26814000
73.23981314,-42.26814000
73.27981314,-42.26814000
73.31981314,-40.50417000
73.35981314,-40.50417000
73.39981314,-38.74020000
73.43981314,-38.74020000
73.47981314,-36.97623000
73.51981314,-35.21225000
73.55981314,-35.21225000
73.59981314,-35.21225000
73.63981314,-35.21225000
73.67981314,-33.44828000
73.71981314,-33.44828000
73.75981314,-31.68431000
73.79981314,-29.92035000
73.83981314,-29.92035000
73.87981314,-28.15638000
73.91981314,-26.39241000
73.95981314,-26.39241000
73.99981314,-26.39241000
74.03981314,-26.39241000
74.07981314,-24.62233000
74.11981314,-22.85836000
74.15981314,-21.09439000
74.19981314,-19.33042000
74.23981314,-19.33042000
74.27981314,-19.33042000
74.31981314,-19.33042000
74.35981314,-17.56645000
74.39981314,-17.56645000
74.43981314,-14.03851000
74.47981314,-14.03851000
74.51981314,-14.03851000
74.55981314,-12.27454000
74.59981314,-12.27454000
74.63981314,-10.51057000
74.67981314,-8.74660500
74.71981314,-8.74660500
74.75981313,-6.98263500
74.79981313,-5.21866500
74.83981313,-5.21866500
74.87981313,-5.21866500
74.91981313,-3.45469500
74.95981313,-3.45469500
74.99981313,-1.69072500
75.03981313,0.07324442
75.07981313,0.07324442
75.11981313,1.83721400
75.15981313,1.83721400
75.19981313,1.83721400
75.23981313,3.60118400
75.27981313,5.36515400
75.31981313,5.36515400
75.35981313,7.12912400
75.39981313,7.12912400
75.43981313,8.89309300
75.47981313,8.89309300
75.51981313,8.89309300
75.55981313,10.65706000
75.59981313,12.42103000
75.63981313,14.18500000
75.67981313,14.18500000
75.71981313,15.94897000
75.75981313,15.94897000
75.79981313,17.71294000
75.83981313,17.71294000
75.87981313,19.47691000
75.91981313,21.24088000
75.95981313,21.24088000
75.99981313,23.00485000
76.03981313,23.00485000
76.07981313,23.00485000
76.11981313,24.76882000
76.15981313,24.76882000
76.19981313,28.29676000
76.23981313,28.29676000
76.27981313,30.06684000
76.31981313,30.06684000
76.35981313,30.06684000
76.39981312,30.06684000
76.43981312,31.83080000
76.47981312,33.59477000
76.51981312,35.35874000
76.55981312,35.35874000
76.59981312,37.12271000
76.63981312,37.12271000
76.67981312,37.12271000
76.71981312,37.12271000
76.75981312,38.88668000
76.79981312,40.65065000
76.83981312,40.65065000
76.87981312,42.41463000
76.91981312,42.41463000
76.95981312,44.17860000
76.99981312,44.17860000
77.03981312,44.17860000
77.07981312,44.17860000
77.11981312,47.70654000
77.15981312,47.70654000
77.19981312,49.47050000
77.23981312,49.47050000
77.27981312,49.47050000
77.31981312,51.23447000
77.35981312,51.23447000
77.39981312,51.23447000
77.43981312,52.99844000
77.47981312,52.99844000
77.51981312,54.76241000
77.55981312,56.52638000
77.59981312,56.52638000
77.63981312,58.29646000
77.67981312,58.29646000
77.71981312,58.29646000
77.75981312,58.29646000
77.79981312,60.06042000
77.83981312,60.06042000
77.87981312,61.82440000
77.91981312,61.82440000
77.95981312,63.58836000
77.99981312,63.58836000
78.03981311,65.35233000
78.07981311,65.35233000
78.11981311,65.35233000
78.15981311,65.35233000
78.19981311,65.35233000
78.23981311,67.11631000
78.27981311,68.88028000
78.31981311,70.64425000
78.35981311,70.64425000
78.39981311,70.64425000
78.43981311,72.40822000
78.47981311,72.40822000
78.51981311,72.40822000
78.55981311,72.40822000
78.59981311,74.17219000
78.63981311,72.40822000
78.67981311,74.17219000
78.71981311,75.93616000
78.75981311,75.93616000
78.79981311,77.70013000
78.83981311,77.70013000
78.87981311,77.70013000
78.91981311,77.70013000
78.95981311,79.46410000
78.99981311,79.46410000
79.03981311,79.46410000
79.07981311,79.46410000
79.11981311,79.46410000
79.15981311,79.46410000
79.19981311,81.22807000
79.23981311,81.22807000
79.27981311,81.22807000
79.31981311,82.99203000
79.35981311,82.99203000
79.39981311,84.75600000
79.43981311,84.75600000
79.47981311,84.75600000
79.51981311,84.75600000
79.55981311,86.52608000
79.59981311,86.52608000
79.63981311,86.52608000
79.67981310,86.52608000
79.71981310,86.52608000
79.75981310,86.52608000
79.79981310,86.52608000
79.83981310,86.52608000
79.87981310,86.52608000
79.91981310,88.29005000
79.95981310,88.29005000
79.99981310,88.29005000
80.03981310,88.29005000
80.07981310,90.05402000
80.11981310,90.05402000
80.15981310,90.05402000
80.19981310,90.05402000
80.23981310,90.05402000
80.27981310,91.81799000
80.31981310,91.81799000
80.35981310,91.81799000
80.39981310,90.05402000
80.43981310,91.81799000
80.47981310,91.81799000
80.51981310,91.81799000
80.55981310,91.81799000
80.59981310,91.81799000
80.63981310,91.81799000
80.67981310,91.81799000
80.71981310,91.81799000
80.75981310,93.58195000
80.79981310,93.58195000
80.83981310,93.58195000
80.87981310,93.58195000
80.91981310,93.58195000
80.95981310,93.58195000
80.99981310,93.58195000
81.03981310,93.58195000
81.07981310,93.58195000
81.11981310,93.58195000
81.15981310,93.58195000
81.19981310,93.58195000
81.23981310,93.58195000
81.27981310,93.58195000
81.31981309,93.58195000
81.35981309,91.81799000
81.39981309,93.58195000
81.43981309,93.58195000
81.47981309,93.58195000
81.51981309,93.58195000
81.55981309,93.58195000
81.59981309,93.58195000
81.63981309,91.81799000
81.67981309,91.81799000
81.71981309,91.81799000
81.75981309,91.81799000
81.79981309,91.81799000
81.83981309,91.81799000
81.87981309,91.81799000
81.91981309,91.81799000
81.95981309,91.81799000
81.99981309,91.81799000
82.03981309,91.81799000
82.07981309,91.81799000
82.11981309,91.81799000
82.15981309,90.05402000
82.19981309,90.05402000
82.23981309,90.05402000
82.27981309,90.05402000
82.31981309,90.05402000
82.35981309,88.29005000
82.39981309,88.29005000
82.43981309,88.29005000
82.47981309,88.29005000
82.51981309,88.29005000
82.55981309,88.29005000
82.59981309,86.52608000
82.63981309,86.52608000
82.67981309,86.52608000
82.71981309,86.52608000
82.75981309,86.52608000
82.79981309,86.52608000
82.83981309,84.75600000
82.87981309,84.75600000
82.91981309,84.75600000
82.95981308,84.75600000
82.99981308,84.75600000
83.03981308,82.99203000
83.07981308,81.22807000
83.11981308,81.22807000
83.15981308,81.22807000
83.19981308,81.22807000
83.23981308,81.22807000
83.27981308,79.46410000
83.31981308,79.46410000
83.35981308,79.46410000
83.39981308,79.46410000
83.43981308,79.46410000
83.47981308,79.46410000
83.51981308,77.70013000
83.55981308,77.70013000
83.59981308,77.70013000
83.63981308,75.93616000
83.67981308,75.93616000
83.71981308,75.93616000
83.75981308,74.17219000
83.79981308,72.40822000
83.83981308,72.40822000
83.87981308,72.40822000
83.91981308,72.40822000
83.95981308,70.64425000
83.99981308,72.40822000
84.03981308,72.40822000
84.07981308,70.64425000
84.11981308,68.88028000
84.15981308,67.11631000
84.19981308,67.11631000
84.23981308,67.11631000
84.27981308,65.35233000
84.31981308,65.35233000
84.35981308,65.35233000
84.39981308,65.35233000
84.43981308,63.58836000
84.47981308,63.58836000
84.51981308,63.58836000
84.55981308,61.82440000
84.59981307,60.06042000
84.63981307,60.06042000
84.67981307,58.29646000
84.71981307,58.29646000
84.75981307,58.29646000
84.79981307,56.52638000
84.83981307,56.52638000
84.87981307,56.52638000
84.91981307,54.76241000
84.95981307,52.99844000
84.99981307,52.99844000
85.03981307,51.23447000
85.07981307,51.23447000
85.11981307,51.23447000
85.15981307,49.47050000
85.19981307,49.47050000
85.23981307,49.47050000
85.27981307,45.94257000
85.31981307,45.94257000
85.35981307,45.94257000
85.39981307,44.17860000
85.43981307,44.17860000
85.47981307,42.41463000
85.51981307,42.41463000
85.55981307,42.41463000
85.59981307,40.65065000
85.63981307,38.88668000
85.67981307,38.88668000
85.71981307,37.12271000
85.75981307,37.12271000
85.79981307,37.12271000
85.83981307,35.35874000
85.87981307,35.35874000
85.91981307,33.59477000
85.95981307,33.59477000
85.99981307,31.83080000
86.03981307,30.06684000
86.07981307,30.06684000
86.11981307,30.06684000
86.15981307,28.29676000
86.19981307,28.29676000
86.23981306,26.53279000
86.27981306,24.76882000
86.31981306,24.76882000
86.35981306,23.00485000
86.39981306,23.00485000
86.43981306,23.00485000
86.47981306,21.24088000
86.51981306,19.47691000
86.55981306,19.47691000
86.59981306,17.71294000
86.63981306,15.94897000
86.67981306,15.94897000
86.71981306,15.94897000
86.75981306,14.18500000
86.79981306,14.18500000
86.83981306,12.42103000
86.87981306,10.65706000
86.91981306,10.65706000
86.95981306,8.89309300
86.99981306,8.89309300
87.03981306,7.12912400
87.07981306,7.12912400
87.11981306,7.12912400
87.15981306,3.60118400
87.19981306,3.60118400
87.23981306,1.83721400
87.27981306,1.83721400
87.31981306,1.83721400
87.35981306,0.07324442
87.39981306,0.07324442
87.43981306,-1.69072500
87.47981306,-3.45469500
87.51981306,-5.21866500
87.55981306,-5.21866500
87.59981306,-5.21866500
87.63981306,-6.98263500
87.67981306,-6.98263500
87.71981306,-8.74660500
87.75981306,-10.51057000
87.79981306,-12.27454000
87.83981306,-12.27454000
87.87981306,-12.27454000
87.91981305,-14.03851000
87.95981305,-14.03851000
87.99981305,-15.80248000
88.03981305,-17.56645000
88.07981305,-19.33042000
88.11981305,-19.33042000
88.15981305,-19.33042000
88.19981305,-19.33042000
88.23981305,-21.09439000
88.27981305,-21.09439000
88.31981305,-22.85836000
88.35981305,-24.62233000
88.39981305,-24.62233000
88.43981305,-26.39241000
88.47981305,-26.39241000
88.51981305,-26.39241000
88.55981305,-28.15638000
88.59981305,-29.92035000
88.63981305,-31.68431000
88.67981305,-31.68431000
88.71981305,-33.44828000
88.75981305,-33.44828000
88.79981305,-33.44828000
88.83981305,-35.21225000
88.87981305,-35.21225000
88.91981305,-36.97623000
88.95981305,-38.74020000
88.99981305,-38.74020000
89.03981305,-40.50417000
89.07981305,-40.50417000
89.11981305,-40.50417000
89.15981305,-40.50417000
89.19981305,-42.26814000
89.23981305,-44.03210000
89.27981305,-45.79607000
89.31981305,-45.79607000
89.35981305,-47.56004000
89.39981305,-47.56004000
89.43981305,-47.56004000
89.47981305,-49.32401000
89.51981305,-49.32401000
89.55981304,-51.08798000
89.59981304,-51.08798000
89.63981304,-52.85195000
89.67981304,-54.62203000
89.71981304,-54.62203000
89.75981304,-54.62203000
89.79981304,-54.62203000
89.83981304,-56.38600000
89.87981304,-56.38600000
89.91981304,-58.14997000
89.95981304,-59.91394000
89.99981304,-59.91394000
90.03981304,-61.67791000
90.07981304,-61.67791000
90.11981304,-61.67791000
90.15981304,-61.67791000
90.19981304,-63.44188000
90.23981304,-63.44188000
90.27981304,-65.20585000
90.31981304,-65.20585000
90.35981304,-66.96982000
90.39981304,-68.73379000
90.43981304,-68.73379000
90.47981304,-68.73379000
90.51981304,-68.73379000
90.55981304,-70.49776000
90.59981304,-70.49776000
90.63981304,-70.49776000
90.67981304,-72.26173000
90.71981304,-74.02570000
90.75981304,-74.02570000
90.79981304,-75.78967000
90.83981304,-75.78967000
90.87981304,-75.78967000
90.91981304,-75.78967000
90.95981304,-75.78967000
90.99981304,-77.55363000
91.03981304,-77.55363000
91.07981304,-77.55363000
91.11981304,-77.55363000
91.15981304,-79.31760000
91.19981303,-81.08157000
91.23981303,-81.08157000
91.27981303,-82.85165000
91.31981303,-82.85165000
91.35981303,-82.85165000
91.39981303,-82.85165000
91.43981303,-82.85165000
91.47981303,-82.85165000
91.51981303,-82.85165000
91.55981303,-84.61562000
91.59981303,-84.61562000
91.63981303,-86.37959000
91.67981303,-86.37959000
91.71981303,-86.37959000
91.75981303,-88.14356000
91.79981303,-88.14356000
91.83981303,-88.14356000
91.87981303,-88.14356000
91.91981303,-89.90753000
91.95981303,-88.14356000
91.99981303,-91.67150000
92.03981303,-89.90753000
92.07981303,-89.90753000
92.11981303,-89.90753000
92.15981303,-91.67150000
92.19981303,-91.67150000
92.23981303,-91.67150000
92.27981303,-91.67150000
92.31981303,-91.67150000
92.35981303,-93.43547000
92.39981303,-93.43547000
92.43981303,-93.43547000
92.47981303,-95.19944000
92.51981303,-93.43547000
92.55981303,-95.19944000
92.59981303,-95.19944000
92.63981303,-95.19944000
92.67981303,-95.19944000
92.71981303,-96.96341000
92.75981303,-96.96341000
92.79981303,-96.96341000
92.83981302,-96.96341000
92.87981302,-96.96341000
92.91981302,-96.96341000
92.95981302,-96.96341000
92.99981302,-96.96341000
93.03981302,-96.96341000
93.07981302,-96.96341000
93.11981302,-96.96341000
93.15981302,-96.96341000
93.19981302,-96.96341000
93.23981302,-96.96341000
93.27981302,-96.96341000
93.31981302,-98.72738000
93.35981302,-98.72738000
93.39981302,-98.72738000
93.43981302,-98.72738000
93.47981302,-98.72738000
93.51981302,-98.72738000
93.55981302,-98.72738000
93.59981302,-98.72738000
93.63981302,-98.72738000
93.67981302,-98.72738000
93.71981302,-98.72738000
93.75981302,-98.72738000
93.79981302,-98.72738000
93.83981302,-98.72738000
93.87981302,-98.72738000
93.91981302,-98.72738000
93.95981302,-98.72738000
93.99981302,-98.72738000
94.03981302,-98.72738000
94.07981302,-96.96341000
94.11981302,-96.96341000
94.15981302,-96.96341000
94.19981302,-96.96341000
94.23981302,-96.96341000
94.27981302,-96.96341000
94.31981302,-96.96341000
94.35981302,-96.96341000
94.39981302,-96.96341000
94.43981302,-96.96341000
94.47981301,-96.96341000
94.51981301,-96.96341000
94.55981301,-96.96341000
94.59981301,-96.96341000
94.63981301,-96.96341000
94.67981301,-96.96341000
94.71981301,-95.19944000
94.75981301,-95.19944000
94.79981301,-95.19944000
94.83981301,-95.19944000
94.87981301,-95.19944000
94.91981301,-95.19944000
94.95981301,-95.19944000
94.99981301,-93.43547000
95.03981301,-93.43547000
95.07981301,-93.43547000
95.11981301,-93.43547000
95.15981301,-91.67150000
95.19981301,-91.67150000
95.23981301,-91.67150000
95.27981301,-91.67150000
95.31981301,-89.90753000
95.35981301,-89.90753000
95.39981301,-89.90753000
95.43981301,-89.90753000
95.47981301,-89.90753000
95.51981301,-89.90753000
95.55981301,-88.14356000
95.59981301,-88.14356000
95.63981301,-88.14356000
95.67981301,-88.14356000
95.71981301,-86.37959000
95.75981301,-84.61562000
95.79981301,-84.61562000
95.83981301,-84.61562000
95.87981301,-84.61562000
95.91981301,-84.61562000
95.95981301,-82.85165000
95.99981301,-82.85165000
96.03981301,-82.85165000
96.07981301,-82.85165000
96.11981300,-81.08157000
96.15981300,-81.08157000
96.19981300,-81.08157000
96.23981300,-79.31760000
96.27981300,-79.31760000
96.31981300,-77.55363000
96.35981300,-79.31760000
96.39981300,-77.55363000
96.43981300,-77.55363000
96.47981300,-77.55363000
96.51981300,-75.78967000
96.55981300,-75.78967000
96.59981300,-74.02570000
96.63981300,-74.02570000
96.67981300,-74.02570000
96.71981300,-74.02570000
96.75981300,-72.26173000
96.79981300,-70.49776000
96.83981300,-70.49776000
96.87981300,-70.49776000
96.91981300,-68.73379000
96.95981300,-68.73379000
96.99981300,-68.73379000
97.03981300,-68.73379000
97.07981300,-66.96982000
97.11981300,-66.96982000
97.15981300,-65.20585000
97.19981300,-63.44188000
97.23981300,-63.44188000
97.27981300,-61.67791000
97.31981300,-61.67791000
97.35981300,-61.67791000
97.39981300,-61.67791000
97.43981300,-59.91394000
97.47981300,-59.91394000
97.51981300,-58.14997000
97.55981300,-56.38600000
97.59981300,-56.38600000
97.63981300,-54.62203000
97.67981300,-54.62203000
97.71981300,-54.62203000
97.75981299,-54.62203000
97.79981299,-52.85195000
97.83981299,-51.08798000
97.87981299,-51.08798000
97.91981299,-49.32401000
97.95981299,-49.32401000
97.99981299,-47.56004000
98.03981299,-47.56004000
98.07981299,-47.56004000
98.11981299,-45.79607000
98.15981299,-45.79607000
98.19981299,-44.03210000
98.23981299,-42.26814000
98.27981299,-42.26814000
98.31981299,-40.50417000
98.35981299,-40.50417000
98.39981299,-40.50417000
98.43981299,-38.74020000
98.47981299,-36.97623000
98.51981299,-36.97623000
98.55981299,-35.21225000
98.59981299,-35.21225000
98.63981299,-33.44828000
98.67981299,-33.44828000
98.71981299,-33.44828000
98.75981299,-31.68431000
98.79981299,-29.92035000
98.83981299,-28.15638000
98.87981299,-28.15638000
98.91981299,-26.39241000
98.95981299,-26.39241000
98.99981299,-26.39241000
99.03981299,-26.39241000
99.07981299,-24.62233000
99.11981299,-22.85836000
99.15981299,-22.85836000
99.19981299,-21.09439000
99.23981299,-21.09439000
99.27981299,-19.33042000
99.31981299,-19.33042000
99.35981299,-17.56645000
99.39981299,-17.56645000
99.43981298,-15.80248000
99.47981298,-14.03851000
99.51981298,-12.27454000
99.55981298,-12.27454000
99.59981298,-12.27454000
99.63981298,-12.27454000
99.67981298,-8.74660500
99.71981298,-6.98263500
99.75981298,-6.98263500
99.79981298,-5.21866500
99.83981298,-5.21866500
99.87981298,-5.21866500
99.91981298,-3.45469500
99.95981298,-3.45469500
99.99981298,0.07324442
100.03981298,0.07324442
