Time,Channel B
(us),(mV)

-100.11442646,-5.21866500
-100.07442646,-5.21866500
-100.03442646,-3.45469500
-99.99442646,-3.45469500
-99.95442646,-1.69072500
-99.91442646,0.07324442
-99.87442646,1.83721400
-99.83442646,1.83721400
-99.79442646,1.83721400
-99.75442646,3.60118400
-99.71442646,3.60118400
-99.67442646,5.36515400
-99.63442646,7.12912400
-99.59442646,7.12912400
-99.55442646,8.89309300
-99.51442646,8.89309300
-99.47442646,10.65706000
-99.43442646,12.42103000
-99.39442646,14.18500000
-99.35442646,14.18500000
-99.31442646,15.94897000
-99.27442646,15.94897000
-99.23442646,17.71294000
-99.19442646,17.71294000
-99.15442647,19.47691000
-99.11442647,21.24088000
-99.07442647,23.00485000
-99.03442647,23.00485000
-98.99442647,23.00485000
-98.95442647,24.76882000
-98.91442647,26.53279000
-98.87442647,26.53279000
-98.83442647,28.29676000
-98.79442647,30.06684000
-98.75442647,30.06684000
-98.71442647,30.06684000
-98.67442647,31.83080000
-98.63442647,31.83080000
-98.59442647,35.35874000
-98.55442647,35.35874000
-98.51442647,35.35874000
-98.47442647,37.12271000
-98.43442647,37.12271000
-98.39442647,38.88668000
-98.35442647,40.65065000
-98.31442647,40.65065000
-98.27442647,42.41463000
-98.23442647,44.17860000
-98.19442647,44.17860000
-98.15442647,44.17860000
-98.11442647,45.94257000
-98.07442647,45.94257000
-98.03442647,49.47050000
-97.99442647,49.47050000
-97.95442647,51.23447000
-97.91442647,51.23447000
-97.87442647,51.23447000
-97.83442647,52.99844000
-97.79442647,52.99844000
-97.75442647,54.76241000
-97.71442647,56.52638000
-97.67442647,56.52638000
-97.63442647,58.29646000
-97.59442647,58.29646000
-97.55442647,58.29646000
-97.51442647,60.06042000
-97.47442648,60.06042000
-97.43442648,61.82440000
-97.39442648,63.58836000
-97.35442648,63.58836000
-97.31442648,65.35233000
-97.27442648,65.35233000
-97.23442648,67.11631000
-97.19442648,67.11631000
-97.15442648,67.11631000
-97.11442648,68.88028000
-97.07442648,70.64425000
-97.03442648,70.64425000
-96.99442648,72.40822000
-96.95442648,72.40822000
-96.91442648,72.40822000
-96.87442648,74.17219000
-96.83442648,75.93616000
-96.79442648,75.93616000
-96.75442648,75.93616000
-96.71442648,77.70013000
-96.67442648,77.70013000
-96.63442648,77.70013000
-96.59442648,79.46410000
-96.55442648,79.46410000
-96.51442648,79.46410000
-96.47442648,81.22807000
-96.43442648,81.22807000
-96.39442648,82.99203000
-96.35442648,82.99203000
-96.31442648,84.75600000
-96.27442648,84.75600000
-96.23442648,86.52608000
-96.19442648,86.52608000
-96.15442648,86.52608000
-96.11442648,86.52608000
-96.07442648,86.52608000
-96.03442648,88.29005000
-95.99442648,90.05402000
-95.95442648,90.05402000
-95.91442648,91.81799000
-95.87442648,91.81799000
-95.83442649,91.81799000
-95.79442649,91.81799000
-95.75442649,93.58195000
-95.71442649,93.58195000
-95.67442649,93.58195000
-95.63442649,93.58195000
-95.59442649,93.58195000
-95.55442649,95.34592000
-95.51442649,95.34592000
-95.47442649,95.34592000
-95.43442649,97.10989000
-95.39442649,98.87386000
-95.35442649,98.87386000
-95.31442649,98.87386000
-95.27442649,98.87386000
-95.23442649,100.63780000
-95.19442649,98.87386000
-95.15442649,100.63780000
-95.11442649,100.63780000
-95.07442649,100.63780000
-95.03442649,100.63780000
-94.99442649,100.63780000
-94.95442649,102.40180000
-94.91442649,102.40180000
-94.87442649,102.40180000
-94.83442649,104.16580000
-94.79442649,104.16580000
-94.75442649,104.16580000
-94.71442649,105.92970000
-94.67442649,105.92970000
-94.63442649,105.92970000
-94.59442649,105.92970000
-94.55442649,105.92970000
-94.51442649,105.92970000
-94.47442649,105.92970000
-94.43442649,107.69370000
-94.39442649,107.69370000
-94.35442649,107.69370000
-94.31442649,107.69370000
-94.27442649,107.69370000
-94.23442649,107.69370000
-94.19442650,107.69370000
-94.15442650,107.69370000
-94.11442650,107.69370000
-94.07442650,107.69370000
-94.03442650,105.92970000
-93.99442650,109.45770000
-93.95442650,109.45770000
-93.91442650,107.69370000
-93.87442650,107.69370000
-93.83442650,107.69370000
-93.79442650,109.45770000
-93.75442650,109.45770000
-93.71442650,109.45770000
-93.67442650,109.45770000
-93.63442650,107.69370000
-93.59442650,107.69370000
-93.55442650,109.45770000
-93.51442650,107.69370000
-93.47442650,107.69370000
-93.43442650,109.45770000
-93.39442650,109.45770000
-93.35442650,107.69370000
-93.31442650,109.45770000
-93.27442650,109.45770000
-93.23442650,107.69370000
-93.19442650,109.45770000
-93.15442650,107.69370000
-93.11442650,109.45770000
-93.07442650,107.69370000
-93.03442650,107.69370000
-92.99442650,107.69370000
-92.95442650,107.69370000
-92.91442650,107.69370000
-92.87442650,107.69370000
-92.83442650,107.69370000
-92.79442650,107.69370000
-92.75442650,107.69370000
-92.71442650,107.69370000
-92.67442650,107.69370000
-92.63442650,107.69370000
-92.59442650,105.92970000
-92.55442651,105.92970000
-92.51442651,105.92970000
-92.47442651,105.92970000
-92.43442651,105.92970000
-92.39442651,105.92970000
-92.35442651,105.92970000
-92.31442651,105.92970000
-92.27442651,104.16580000
-92.23442651,104.16580000
-92.19442651,104.16580000
-92.15442651,102.40180000
-92.11442651,102.40180000
-92.07442651,102.40180000
-92.03442651,102.40180000
-91.99442651,100.63780000
-91.95442651,100.63780000
-91.91442651,100.63780000
-91.87442651,100.63780000
-91.83442651,100.63780000
-91.79442651,100.63780000
-91.75442651,98.87386000
-91.71442651,98.87386000
-91.67442651,97.10989000
-91.63442651,97.10989000
-91.59442651,97.10989000
-91.55442651,95.34592000
-91.51442651,95.34592000
-91.47442651,95.34592000
-91.43442651,93.58195000
-91.39442651,93.58195000
-91.35442651,93.58195000
-91.31442651,93.58195000
-91.27442651,93.58195000
-91.23442651,91.81799000
-91.19442651,91.81799000
-91.15442651,91.81799000
-91.11442651,90.05402000
-91.07442651,88.29005000
-91.03442651,90.05402000
-90.99442651,88.29005000
-90.95442651,86.52608000
-90.91442652,86.52608000
-90.87442652,86.52608000
-90.83442652,86.52608000
-90.79442652,86.52608000
-90.75442652,84.75600000
-90.71442652,84.75600000
-90.67442652,84.75600000
-90.63442652,82.99203000
-90.59442652,81.22807000
-90.55442652,81.22807000
-90.51442652,79.46410000
-90.47442652,79.46410000
-90.43442652,79.46410000
-90.39442652,77.70013000
-90.35442652,79.46410000
-90.31442652,77.70013000
-90.27442652,75.93616000
-90.23442652,75.93616000
-90.19442652,74.17219000
-90.15442652,72.40822000
-90.11442652,72.40822000
-90.07442652,72.40822000
-90.03442652,70.64425000
-89.99442652,70.64425000
-89.95442652,70.64425000
-89.91442652,68.88028000
-89.87442652,68.88028000
-89.83442652,67.11631000
-89.79442652,65.35233000
-89.75442652,65.35233000
-89.71442652,65.35233000
-89.67442652,63.58836000
-89.63442652,61.82440000
-89.59442652,61.82440000
-89.55442652,61.82440000
-89.51442652,60.06042000
-89.47442652,58.29646000
-89.43442652,58.29646000
-89.39442652,58.29646000
-89.35442652,56.52638000
-89.31442652,56.52638000
-89.27442653,54.76241000
-89.23442653,52.99844000
-89.19442653,52.99844000
-89.15442653,51.23447000
-89.11442653,51.23447000
-89.07442653,49.47050000
-89.03442653,49.47050000
-88.99442653,45.94257000
-88.95442653,45.94257000
-88.91442653,45.94257000
-88.87442653,44.17860000
-88.83442653,44.17860000
-88.79442653,44.17860000
-88.75442653,42.41463000
-88.71442653,40.65065000
-88.67442653,38.88668000
-88.63442653,38.88668000
-88.59442653,37.12271000
-88.55442653,37.12271000
-88.51442653,37.12271000
-88.47442653,35.35874000
-88.43442653,35.35874000
-88.39442653,33.59477000
-88.35442653,31.83080000
-88.31442653,30.06684000
-88.27442653,30.06684000
-88.23442653,30.06684000
-88.19442653,28.29676000
-88.15442653,28.29676000
-88.11442653,26.53279000
-88.07442653,24.76882000
-88.03442653,23.00485000
-87.99442653,23.00485000
-87.95442653,21.24088000
-87.91442653,21.24088000
-87.87442653,21.24088000
-87.83442653,17.71294000
-87.79442653,15.94897000
-87.75442653,15.94897000
-87.71442653,15.94897000
-87.67442653,14.18500000
-87.63442654,14.18500000
-87.59442654,10.65706000
-87.55442654,10.65706000
-87.51442654,8.89309300
-87.47442654,8.89309300
-87.43442654,8.89309300
-87.39442654,7.12912400
-87.35442654,7.12912400
-87.31442654,1.83721400
-87.27442654,3.60118400
-87.23442654,3.60118400
-87.19442654,1.83721400
-87.15442654,0.07324442
-87.11442654,0.07324442
-87.07442654,-1.69072500
-87.03442654,-3.45469500
-86.99442654,-3.45469500
-86.95442654,-5.21866500
-86.91442654,-5.21866500
-86.87442654,-6.98263500
-86.83442654,-6.98263500
-86.79442654,-8.74660500
-86.75442654,-10.51057000
-86.71442654,-12.27454000
-86.67442654,-12.27454000
-86.63442654,-14.03851000
-86.59442654,-14.03851000
-86.55442654,-15.80248000
-86.51442654,-17.56645000
-86.47442654,-17.56645000
-86.43442654,-19.33042000
-86.39442654,-19.33042000
-86.35442654,-21.09439000
-86.31442654,-21.09439000
-86.27442654,-22.85836000
-86.23442654,-22.85836000
-86.19442654,-26.39241000
-86.15442654,-26.39241000
-86.11442654,-26.39241000
-86.07442654,-26.39241000
-86.03442654,-28.15638000
-85.99442654,-31.68431000
-85.95442655,-29.92035000
-85.91442655,-31.68431000
-85.87442655,-33.44828000
-85.83442655,-33.44828000
-85.79442655,-33.44828000
-85.75442655,-36.97623000
-85.71442655,-36.97623000
-85.67442655,-36.97623000
-85.63442655,-38.74020000
-85.59442655,-38.74020000
-85.55442655,-40.50417000
-85.51442655,-40.50417000
-85.47442655,-42.26814000
-85.43442655,-44.03210000
-85.39442655,-45.79607000
-85.35442655,-45.79607000
-85.31442655,-47.56004000
-85.27442655,-47.56004000
-85.23442655,-49.32401000
-85.19442655,-49.32401000
-85.15442655,-49.32401000
-85.11442655,-51.08798000
-85.07442655,-52.85195000
-85.03442655,-54.62203000
-84.99442655,-54.62203000
-84.95442655,-54.62203000
-84.91442655,-56.38600000
-84.87442655,-56.38600000
-84.83442655,-56.38600000
-84.79442655,-58.14997000
-84.75442655,-59.91394000
-84.71442655,-59.91394000
-84.67442655,-61.67791000
-84.63442655,-61.67791000
-84.59442655,-61.67791000
-84.55442655,-63.44188000
-84.51442655,-63.44188000
-84.47442655,-65.20585000
-84.43442655,-66.96982000
-84.39442655,-66.96982000
-84.35442655,-68.73379000
-84.31442656,-68.73379000
-84.27442656,-68.73379000
-84.23442656,-68.73379000
-84.19442656,-70.49776000
-84.15442656,-70.49776000
-84.11442656,-72.26173000
-84.07442656,-74.02570000
-84.03442656,-74.02570000
-83.99442656,-74.02570000
-83.95442656,-75.78967000
-83.91442656,-75.78967000
-83.87442656,-75.78967000
-83.83442656,-75.78967000
-83.79442656,-77.55363000
-83.75442656,-77.55363000
-83.71442656,-79.31760000
-83.67442656,-79.31760000
-83.63442656,-81.08157000
-83.59442656,-81.08157000
-83.55442656,-82.85165000
-83.51442656,-82.85165000
-83.47442656,-82.85165000
-83.43442656,-82.85165000
-83.39442656,-82.85165000
-83.35442656,-84.61562000
-83.31442656,-84.61562000
-83.27442656,-86.37959000
-83.23442656,-86.37959000
-83.19442656,-86.37959000
-83.15442656,-88.14356000
-83.11442656,-88.14356000
-83.07442656,-88.14356000
-83.03442656,-89.90753000
-82.99442656,-89.90753000
-82.95442656,-89.90753000
-82.91442656,-89.90753000
-82.87442656,-89.90753000
-82.83442656,-91.67150000
-82.79442656,-91.67150000
-82.75442656,-91.67150000
-82.71442656,-91.67150000
-82.67442657,-93.43547000
-82.63442657,-95.19944000
-82.59442657,-95.19944000
-82.55442657,-95.19944000
-82.51442657,-95.19944000
-82.47442657,-96.96341000
-82.43442657,-95.19944000
-82.39442657,-96.96341000
-82.35442657,-96.96341000
-82.31442657,-96.96341000
-82.27442657,-96.96341000
-82.23442657,-96.96341000
-82.19442657,-96.96341000
-82.15442657,-96.96341000
-82.11442657,-98.72738000
-82.07442657,-98.72738000
-82.03442657,-98.72738000
-81.99442657,-98.72738000
-81.95442657,-100.49130000
-81.91442657,-98.72738000
-81.87442657,-98.72738000
-81.83442657,-98.72738000
-81.79442657,-100.49130000
-81.75442657,-102.25530000
-81.71442657,-102.25530000
-81.67442657,-102.25530000
-81.63442657,-100.49130000
-81.59442657,-102.25530000
-81.55442657,-102.25530000
-81.51442657,-102.25530000
-81.47442657,-102.25530000
-81.43442657,-102.25530000
-81.39442657,-102.25530000
-81.35442657,-102.25530000
-81.31442657,-102.25530000
-81.27442657,-104.01930000
-81.23442657,-104.01930000
-81.19442657,-102.25530000
-81.15442657,-102.25530000
-81.11442657,-104.01930000
-81.07442657,-102.25530000
-81.03442658,-104.01930000
-80.99442658,-104.01930000
-80.95442658,-104.01930000
-80.91442658,-104.01930000
-80.87442658,-104.01930000
-80.83442658,-102.25530000
-80.79442658,-102.25530000
-80.75442658,-102.25530000
-80.71442658,-104.01930000
-80.67442658,-102.25530000
-80.63442658,-102.25530000
-80.59442658,-102.25530000
-80.55442658,-102.25530000
-80.51442658,-102.25530000
-80.47442658,-100.49130000
-80.43442658,-102.25530000
-80.39442658,-102.25530000
-80.35442658,-102.25530000
-80.31442658,-102.25530000
-80.27442658,-100.49130000
-80.23442658,-98.72738000
-80.19442658,-98.72738000
-80.15442658,-100.49130000
-80.11442658,-98.72738000
-80.07442658,-98.72738000
-80.03442658,-98.72738000
-79.99442658,-98.72738000
-79.95442658,-98.72738000
-79.91442658,-98.72738000
-79.87442658,-96.96341000
-79.83442658,-96.96341000
-79.79442658,-96.96341000
-79.75442658,-96.96341000
-79.71442658,-96.96341000
-79.67442658,-96.96341000
-79.63442658,-96.96341000
-79.59442658,-96.96341000
-79.55442658,-95.19944000
-79.51442658,-95.19944000
-79.47442658,-93.43547000
-79.43442658,-93.43547000
-79.39442659,-95.19944000
-79.35442659,-95.19944000
-79.31442659,-91.67150000
-79.27442659,-91.67150000
-79.23442659,-91.67150000
-79.19442659,-91.67150000
-79.15442659,-91.67150000
-79.11442659,-89.90753000
-79.07442659,-89.90753000
-79.03442659,-89.90753000
-78.99442659,-89.90753000
-78.95442659,-88.14356000
-78.91442659,-88.14356000
-78.87442659,-88.14356000
-78.83442659,-88.14356000
-78.79442659,-88.14356000
-78.75442659,-86.37959000
-78.71442659,-84.61562000
-78.67442659,-84.61562000
-78.63442659,-84.61562000
-78.59442659,-82.85165000
-78.55442659,-82.85165000
-78.51442659,-82.85165000
-78.47442659,-82.85165000
-78.43442659,-81.08157000
-78.39442659,-81.08157000
-78.35442659,-79.31760000
-78.31442659,-77.55363000
-78.27442659,-77.55363000
-78.23442659,-77.55363000
-78.19442659,-77.55363000
-78.15442659,-75.78967000
-78.11442659,-75.78967000
-78.07442659,-74.02570000
-78.03442659,-74.02570000
-77.99442659,-74.02570000
-77.95442659,-74.02570000
-77.91442659,-72.26173000
-77.87442659,-70.49776000
-77.83442659,-70.49776000
-77.79442659,-68.73379000
-77.75442660,-68.73379000
-77.71442660,-68.73379000
-77.67442660,-66.96982000
-77.63442660,-66.96982000
-77.59442660,-66.96982000
-77.55442660,-65.20585000
-77.51442660,-63.44188000
-77.47442660,-63.44188000
-77.43442660,-61.67791000
-77.39442660,-61.67791000
-77.35442660,-61.67791000
-77.31442660,-59.91394000
-77.27442660,-59.91394000
-77.23442660,-58.14997000
-77.19442660,-56.38600000
-77.15442660,-56.38600000
-77.11442660,-54.62203000
-77.07442660,-54.62203000
-77.03442660,-54.62203000
-76.99442660,-54.62203000
-76.95442660,-51.08798000
-76.91442660,-51.08798000
-76.87442660,-49.32401000
-76.83442660,-49.32401000
-76.79442660,-47.56004000
-76.75442660,-47.56004000
-76.71442660,-47.56004000
-76.67442660,-45.79607000
-76.63442660,-44.03210000
-76.59442660,-42.26814000
-76.55442660,-42.26814000
-76.51442660,-40.50417000
-76.47442660,-40.50417000
-76.43442660,-40.50417000
-76.39442660,-38.74020000
-76.35442660,-38.74020000
-76.31442660,-35.21225000
-76.27442660,-35.21225000
-76.23442660,-33.44828000
-76.19442660,-33.44828000
-76.15442660,-33.44828000
-76.11442661,-31.68431000
-76.07442661,-31.68431000
-76.03442661,-29.92035000
-75.99442661,-28.15638000
-75.95442661,-26.39241000
-75.91442661,-26.39241000
-75.87442661,-26.39241000
-75.83442661,-24.62233000
-75.79442661,-22.85836000
-75.75442661,-22.85836000
-75.71442661,-21.09439000
-75.67442661,-21.09439000
-75.63442661,-19.33042000
-75.59442661,-19.33042000
-75.55442661,-17.56645000
-75.51442661,-17.56645000
-75.47442661,-15.80248000
-75.43442661,-14.03851000
-75.39442661,-12.27454000
-75.35442661,-12.27454000
-75.31442661,-12.27454000
-75.27442661,-10.51057000
-75.23442661,-8.74660500
-75.19442661,-6.98263500
-75.15442661,-6.98263500
-75.11442661,-6.98263500
-75.07442661,-5.21866500
-75.03442661,-3.45469500
-74.99442661,-3.45469500
-74.95442661,-1.69072500
-74.91442661,0.07324442
-74.87442661,0.07324442
-74.83442661,1.83721400
-74.79442661,1.83721400
-74.75442661,3.60118400
-74.71442661,5.36515400
-74.67442661,5.36515400
-74.63442661,7.12912400
-74.59442661,8.89309300
-74.55442661,8.89309300
-74.51442661,10.65706000
-74.47442662,10.65706000
-74.43442662,14.18500000
-74.39442662,14.18500000
-74.35442662,14.18500000
-74.31442662,15.94897000
-74.27442662,15.94897000
-74.23442662,17.71294000
-74.19442662,17.71294000
-74.15442662,21.24088000
-74.11442662,21.24088000
-74.07442662,21.24088000
-74.03442662,23.00485000
-73.99442662,23.00485000
-73.95442662,24.76882000
-73.91442662,24.76882000
-73.87442662,28.29676000
-73.83442662,28.29676000
-73.79442662,30.06684000
-73.75442662,30.06684000
-73.71442662,30.06684000
-73.67442662,31.83080000
-73.63442662,33.59477000
-73.59442662,35.35874000
-73.55442662,35.35874000
-73.51442662,37.12271000
-73.47442662,37.12271000
-73.43442662,37.12271000
-73.39442662,38.88668000
-73.35442662,38.88668000
-73.31442662,42.41463000
-73.27442662,42.41463000
-73.23442662,42.41463000
-73.19442662,44.17860000
-73.15442662,44.17860000
-73.11442662,45.94257000
-73.07442662,47.70654000
-73.03442662,49.47050000
-72.99442662,49.47050000
-72.95442662,51.23447000
-72.91442662,51.23447000
-72.87442662,51.23447000
-72.83442662,52.99844000
-72.79442663,52.99844000
-72.75442663,54.76241000
-72.71442663,56.52638000
-72.67442663,58.29646000
-72.63442663,58.29646000
-72.59442663,58.29646000
-72.55442663,61.82440000
-72.51442663,58.29646000
-72.47442663,60.06042000
-72.43442663,63.58836000
-72.39442663,63.58836000
-72.35442663,63.58836000
-72.31442663,65.35233000
-72.27442663,65.35233000
-72.23442663,67.11631000
-72.19442663,67.11631000
-72.15442663,68.88028000
-72.11442663,68.88028000
-72.07442663,70.64425000
-72.03442663,72.40822000
-71.99442663,72.40822000
-71.95442663,72.40822000
-71.91442663,72.40822000
-71.87442663,74.17219000
-71.83442663,74.17219000
-71.79442663,75.93616000
-71.75442663,75.93616000
-71.71442663,77.70013000
-71.67442663,77.70013000
-71.63442663,79.46410000
-71.59442663,79.46410000
-71.55442663,79.46410000
-71.51442663,79.46410000
-71.47442663,79.46410000
-71.43442663,81.22807000
-71.39442663,82.99203000
-71.35442663,82.99203000
-71.31442663,84.75600000
-71.27442663,84.75600000
-71.23442663,86.52608000
-71.19442663,84.75600000
-71.15442664,86.52608000
-71.11442664,88.29005000
-71.07442664,86.52608000
-71.03442664,88.29005000
-70.99442664,90.05402000
-70.95442664,90.05402000
-70.91442664,91.81799000
-70.87442664,91.81799000
-70.83442664,91.81799000
-70.79442664,91.81799000
-70.75442664,93.58195000
-70.71442664,93.58195000
-70.67442664,93.58195000
-70.63442664,93.58195000
-70.59442664,95.34592000
-70.55442664,95.34592000
-70.51442664,95.34592000
-70.47442664,95.34592000
-70.43442664,97.10989000
-70.39442664,98.87386000
-70.35442664,97.10989000
-70.31442664,98.87386000
-70.27442664,98.87386000
-70.23442664,98.87386000
-70.19442664,98.87386000
-70.15442664,100.63780000
-70.11442664,100.63780000
-70.07442664,100.63780000
-70.03442664,100.63780000
-69.99442664,100.63780000
-69.95442664,100.63780000
-69.91442664,102.40180000
-69.87442664,104.16580000
-69.83442664,102.40180000
-69.79442664,104.16580000
-69.75442664,104.16580000
-69.71442664,105.92970000
-69.67442664,105.92970000
-69.63442664,105.92970000
-69.59442664,105.92970000
-69.55442664,105.92970000
-69.51442665,107.69370000
-69.47442665,107.69370000
-69.43442665,105.92970000
-69.39442665,107.69370000
-69.35442665,107.69370000
-69.31442665,107.69370000
-69.27442665,107.69370000
-69.23442665,107.69370000
-69.19442665,107.69370000
-69.15442665,107.69370000
-69.11442665,107.69370000
-69.07442665,107.69370000
-69.03442665,107.69370000
-68.99442665,109.45770000
-68.95442665,107.69370000
-68.91442665,109.45770000
-68.87442665,107.69370000
-68.83442665,109.45770000
-68.79442665,107.69370000
-68.75442665,109.45770000
-68.71442665,109.45770000
-68.67442665,109.45770000
-68.63442665,107.69370000
-68.59442665,109.45770000
-68.55442665,109.45770000
-68.51442665,107.69370000
-68.47442665,109.45770000
-68.43442665,109.45770000
-68.39442665,109.45770000
-68.35442665,109.45770000
-68.31442665,109.45770000
-68.27442665,109.45770000
-68.23442665,109.45770000
-68.19442665,107.69370000
-68.15442665,109.45770000
-68.11442665,107.69370000
-68.07442665,107.69370000
-68.03442665,107.69370000
-67.99442665,107.69370000
-67.95442665,107.69370000
-67.91442665,107.69370000
-67.87442666,107.69370000
-67.83442666,107.69370000
-67.79442666,107.69370000
-67.75442666,107.69370000
-67.71442666,107.69370000
-67.67442666,107.69370000
-67.63442666,107.69370000
-67.59442666,105.92970000
-67.55442666,105.92970000
-67.51442666,105.92970000
-67.47442666,105.92970000
-67.43442666,105.92970000
-67.39442666,105.92970000
-67.35442666,105.92970000
-67.31442666,105.92970000
-67.27442666,105.92970000
-67.23442666,102.40180000
-67.19442666,104.16580000
-67.15442666,104.16580000
-67.11442666,102.40180000
-67.07442666,102.40180000
-67.03442666,100.63780000
-66.99442666,100.63780000
-66.95442666,100.63780000
-66.91442666,100.63780000
-66.87442666,100.63780000
-66.83442666,100.63780000
-66.79442666,98.87386000
-66.75442666,100.63780000
-66.71442666,98.87386000
-66.67442666,98.87386000
-66.63442666,97.10989000
-66.59442666,97.10989000
-66.55442666,95.34592000
-66.51442666,95.34592000
-66.47442666,95.34592000
-66.43442666,95.34592000
-66.39442666,93.58195000
-66.35442666,93.58195000
-66.31442666,93.58195000
-66.27442666,93.58195000
-66.23442667,91.81799000
-66.19442667,91.81799000
-66.15442667,91.81799000
-66.11442667,91.81799000
-66.07442667,90.05402000
-66.03442667,88.29005000
-65.99442667,88.29005000
-65.95442667,86.52608000
-65.91442667,86.52608000
-65.87442667,86.52608000
-65.83442667,86.52608000
-65.79442667,84.75600000
-65.75442667,84.75600000
-65.71442667,84.75600000
-65.67442667,82.99203000
-65.63442667,81.22807000
-65.59442667,81.22807000
-65.55442667,81.22807000
-65.51442667,79.46410000
-65.47442667,79.46410000
-65.43442667,79.46410000
-65.39442667,77.70013000
-65.35442667,77.70013000
-65.31442667,77.70013000
-65.27442667,75.93616000
-65.23442667,75.93616000
-65.19442667,74.17219000
-65.15442667,72.40822000
-65.11442667,72.40822000
-65.07442667,72.40822000
-65.03442667,72.40822000
-64.99442667,70.64425000
-64.95442667,70.64425000
-64.91442667,67.11631000
-64.87442667,67.11631000
-64.83442667,67.11631000
-64.79442667,65.35233000
-64.75442667,65.35233000
-64.71442667,65.35233000
-64.67442667,63.58836000
-64.63442667,63.58836000
-64.59442668,61.82440000
-64.55442668,60.06042000
-64.51442668,60.06042000
-64.47442668,58.29646000
-64.43442668,58.29646000
-64.39442668,58.29646000
-64.35442668,58.29646000
-64.31442668,54.76241000
-64.27442668,52.99844000
-64.23442668,52.99844000
-64.19442668,52.99844000
-64.15442668,51.23447000
-64.11442668,51.23447000
-64.07442668,51.23447000
-64.03442668,49.47050000
-63.99442668,49.47050000
-63.95442668,47.70654000
-63.91442668,45.94257000
-63.87442668,44.17860000
-63.83442668,44.17860000
-63.79442668,44.17860000
-63.75442668,42.41463000
-63.71442668,40.65065000
-63.67442668,38.88668000
-63.63442668,38.88668000
-63.59442668,37.12271000
-63.55442668,37.12271000
-63.51442668,37.12271000
-63.47442668,35.35874000
-63.43442668,35.35874000
-63.39442668,33.59477000
-63.35442668,31.83080000
-63.31442668,30.06684000
-63.27442668,30.06684000
-63.23442668,30.06684000
-63.19442668,28.29676000
-63.15442668,26.53279000
-63.11442668,24.76882000
-63.07442668,24.76882000
-63.03442668,23.00485000
-62.99442668,23.00485000
-62.95442669,23.00485000
-62.91442669,21.24088000
-62.87442669,21.24088000
-62.83442669,17.71294000
-62.79442669,17.71294000
-62.75442669,15.94897000
-62.71442669,14.18500000
-62.67442669,14.18500000
-62.63442669,14.18500000
-62.59442669,10.65706000
-62.55442669,10.65706000
-62.51442669,8.89309300
-62.47442669,8.89309300
-62.43442669,8.89309300
-62.39442669,7.12912400
-62.35442669,7.12912400
-62.31442669,3.60118400
-62.27442669,3.60118400
-62.23442669,1.83721400
-62.19442669,1.83721400
-62.15442669,0.07324442
-62.11442669,0.07324442
-62.07442669,-3.45469500
-62.03442669,-3.45469500
-61.99442669,-5.21866500
-61.95442669,-5.21866500
-61.91442669,-5.21866500
-61.87442669,-6.98263500
-61.83442669,-6.98263500
-61.79442669,-8.74660500
-61.75442669,-10.51057000
-61.71442669,-12.27454000
-61.67442669,-12.27454000
-61.63442669,-14.03851000
-61.59442669,-14.03851000
-61.55442669,-15.80248000
-61.51442669,-17.56645000
-61.47442669,-19.33042000
-61.43442669,-19.33042000
-61.39442669,-19.33042000
-61.35442669,-21.09439000
-61.31442669,-21.09439000
-61.27442670,-22.85836000
-61.23442670,-24.62233000
-61.19442670,-26.39241000
-61.15442670,-26.39241000
-61.11442670,-26.39241000
-61.07442670,-28.15638000
-61.03442670,-28.15638000
-60.99442670,-29.92035000
-60.95442670,-31.68431000
-60.91442670,-31.68431000
-60.87442670,-33.44828000
-60.83442670,-33.44828000
-60.79442670,-35.21225000
-60.75442670,-35.21225000
-60.71442670,-36.97623000
-60.67442670,-38.74020000
-60.63442670,-38.74020000
-60.59442670,-40.50417000
-60.55442670,-40.50417000
-60.51442670,-40.50417000
-60.47442670,-42.26814000
-60.43442670,-42.26814000
-60.39442670,-45.79607000
-60.35442670,-45.79607000
-60.31442670,-47.56004000
-60.27442670,-47.56004000
-60.23442670,-47.56004000
-60.19442670,-49.32401000
-60.15442670,-49.32401000
-60.11442670,-51.08798000
-60.07442670,-54.62203000
-60.03442670,-54.62203000
-59.99442670,-54.62203000
-59.95442670,-54.62203000
-59.91442670,-54.62203000
-59.87442670,-56.38600000
-59.83442670,-56.38600000
-59.79442670,-58.14997000
-59.75442670,-59.91394000
-59.71442670,-59.91394000
-59.67442670,-61.67791000
-59.63442671,-61.67791000
-59.59442671,-61.67791000
-59.55442671,-61.67791000
-59.51442671,-63.44188000
-59.47442671,-63.44188000
-59.43442671,-65.20585000
-59.39442671,-66.96982000
-59.35442671,-68.73379000
-59.31442671,-68.73379000
-59.27442671,-68.73379000
-59.23442671,-68.73379000
-59.19442671,-70.49776000
-59.15442671,-70.49776000
-59.11442671,-72.26173000
-59.07442671,-72.26173000
-59.03442671,-74.02570000
-58.99442671,-74.02570000
-58.95442671,-75.78967000
-58.91442671,-75.78967000
-58.87442671,-75.78967000
-58.83442671,-75.78967000
-58.79442671,-77.55363000
-58.75442671,-77.55363000
-58.71442671,-79.31760000
-58.67442671,-79.31760000
-58.63442671,-81.08157000
-58.59442671,-81.08157000
-58.55442671,-81.08157000
-58.51442671,-82.85165000
-58.47442671,-82.85165000
-58.43442671,-82.85165000
-58.39442671,-82.85165000
-58.35442671,-84.61562000
-58.31442671,-84.61562000
-58.27442671,-84.61562000
-58.23442671,-86.37959000
-58.19442671,-86.37959000
-58.15442671,-88.14356000
-58.11442671,-88.14356000
-58.07442671,-88.14356000
-58.03442671,-89.90753000
-57.99442672,-89.90753000
-57.95442672,-89.90753000
-57.91442672,-89.90753000
-57.87442672,-89.90753000
-57.83442672,-91.67150000
-57.79442672,-91.67150000
-57.75442672,-93.43547000
-57.71442672,-91.67150000
-57.67442672,-91.67150000
-57.63442672,-95.19944000
-57.59442672,-95.19944000
-57.55442672,-95.19944000
-57.51442672,-95.19944000
-57.47442672,-95.19944000
-57.43442672,-96.96341000
-57.39442672,-96.96341000
-57.35442672,-96.96341000
-57.31442672,-96.96341000
-57.27442672,-96.96341000
-57.23442672,-96.96341000
-57.19442672,-96.96341000
-57.15442672,-96.96341000
-57.11442672,-98.72738000
-57.07442672,-98.72738000
-57.03442672,-98.72738000
-56.99442672,-98.72738000
-56.95442672,-98.72738000
-56.91442672,-98.72738000
-56.87442672,-98.72738000
-56.83442672,-98.72738000
-56.79442672,-98.72738000
-56.75442672,-100.49130000
-56.71442672,-100.49130000
-56.67442672,-100.49130000
-56.63442672,-100.49130000
-56.59442672,-102.25530000
-56.55442672,-102.25530000
-56.51442672,-102.25530000
-56.47442672,-102.25530000
-56.43442672,-104.01930000
-56.39442672,-102.25530000
-56.35442673,-102.25530000
-56.31442673,-104.01930000
-56.27442673,-102.25530000
-56.23442673,-102.25530000
-56.19442673,-104.01930000
-56.15442673,-102.25530000
-56.11442673,-102.25530000
-56.07442673,-102.25530000
-56.03442673,-102.25530000
-55.99442673,-102.25530000
-55.95442673,-102.25530000
-55.91442673,-102.25530000
-55.87442673,-102.25530000
-55.83442673,-102.25530000
-55.79442673,-102.25530000
-55.75442673,-102.25530000
-55.71442673,-102.25530000
-55.67442673,-102.25530000
-55.63442673,-104.01930000
-55.59442673,-102.25530000
-55.55442673,-102.25530000
-55.51442673,-102.25530000
-55.47442673,-102.25530000
-55.43442673,-102.25530000
-55.39442673,-100.49130000
-55.35442673,-102.25530000
-55.31442673,-100.49130000
-55.27442673,-98.72738000
-55.23442673,-100.49130000
-55.19442673,-98.72738000
-55.15442673,-98.72738000
-55.11442673,-98.72738000
-55.07442673,-98.72738000
-55.03442673,-98.72738000
-54.99442673,-98.72738000
-54.95442673,-98.72738000
-54.91442673,-96.96341000
-54.87442673,-96.96341000
-54.83442673,-96.96341000
-54.79442673,-96.96341000
-54.75442673,-96.96341000
-54.71442674,-96.96341000
-54.67442674,-96.96341000
-54.63442674,-95.19944000
-54.59442674,-96.96341000
-54.55442674,-95.19944000
-54.51442674,-95.19944000
-54.47442674,-93.43547000
-54.43442674,-93.43547000
-54.39442674,-93.43547000
-54.35442674,-91.67150000
-54.31442674,-93.43547000
-54.27442674,-91.67150000
-54.23442674,-91.67150000
-54.19442674,-91.67150000
-54.15442674,-91.67150000
-54.11442674,-89.90753000
-54.07442674,-89.90753000
-54.03442674,-89.90753000
-53.99442674,-88.14356000
-53.95442674,-89.90753000
-53.91442674,-88.14356000
-53.87442674,-88.14356000
-53.83442674,-86.37959000
-53.79442674,-86.37959000
-53.75442674,-84.61562000
-53.71442674,-84.61562000
-53.67442674,-84.61562000
-53.63442674,-82.85165000
-53.59442674,-82.85165000
-53.55442674,-82.85165000
-53.51442674,-82.85165000
-53.47442674,-81.08157000
-53.43442674,-81.08157000
-53.39442674,-81.08157000
-53.35442674,-79.31760000
-53.31442674,-77.55363000
-53.27442674,-77.55363000
-53.23442674,-77.55363000
-53.19442674,-75.78967000
-53.15442674,-75.78967000
-53.11442674,-75.78967000
-53.07442675,-75.78967000
-53.03442675,-74.02570000
-52.99442675,-74.02570000
-52.95442675,-72.26173000
-52.91442675,-70.49776000
-52.87442675,-70.49776000
-52.83442675,-70.49776000
-52.79442675,-70.49776000
-52.75442675,-68.73379000
-52.71442675,-68.73379000
-52.67442675,-68.73379000
-52.63442675,-66.96982000
-52.59442675,-63.44188000
-52.55442675,-63.44188000
-52.51442675,-63.44188000
-52.47442675,-63.44188000
-52.43442675,-61.67791000
-52.39442675,-61.67791000
-52.35442675,-61.67791000
-52.31442675,-59.91394000
-52.27442675,-58.14997000
-52.23442675,-58.14997000
-52.19442675,-56.38600000
-52.15442675,-56.38600000
-52.11442675,-56.38600000
-52.07442675,-54.62203000
-52.03442675,-54.62203000
-51.99442675,-52.85195000
-51.95442675,-51.08798000
-51.91442675,-51.08798000
-51.87442675,-49.32401000
-51.83442675,-49.32401000
-51.79442675,-47.56004000
-51.75442675,-47.56004000
-51.71442675,-45.79607000
-51.67442675,-45.79607000
-51.63442675,-44.03210000
-51.59442675,-42.26814000
-51.55442675,-42.26814000
-51.51442675,-40.50417000
-51.47442675,-40.50417000
-51.43442676,-38.74020000
-51.39442676,-38.74020000
-51.35442676,-36.97623000
-51.31442676,-35.21225000
-51.27442676,-35.21225000
-51.23442676,-33.44828000
-51.19442676,-33.44828000
-51.15442676,-33.44828000
-51.11442676,-31.68431000
-51.07442676,-29.92035000
-51.03442676,-28.15638000
-50.99442676,-28.15638000
-50.95442676,-28.15638000
-50.91442676,-26.39241000
-50.87442676,-26.39241000
-50.83442676,-24.62233000
-50.79442676,-22.85836000
-50.75442676,-21.09439000
-50.71442676,-21.09439000
-50.67442676,-21.09439000
-50.63442676,-19.33042000
-50.59442676,-19.33042000
-50.55442676,-17.56645000
-50.51442676,-15.80248000
-50.47442676,-14.03851000
-50.43442676,-14.03851000
-50.39442676,-14.03851000
-50.35442676,-12.27454000
-50.31442676,-10.51057000
-50.27442676,-10.51057000
-50.23442676,-8.74660500
-50.19442676,-6.98263500
-50.15442676,-5.21866500
-50.11442676,-5.21866500
-50.07442676,-5.21866500
-50.03442676,-3.45469500
-49.99442676,-3.45469500
-49.95442676,-1.69072500
-49.91442676,0.07324442
-49.87442676,1.83721400
-49.83442676,1.83721400
-49.79442677,3.60118400
-49.75442677,1.83721400
-49.71442677,7.12912400
-49.67442677,7.12912400
-49.63442677,5.36515400
-49.59442677,7.12912400
-49.55442677,8.89309300
-49.51442677,10.65706000
-49.47442677,10.65706000
-49.43442677,12.42103000
-49.39442677,14.18500000
-49.35442677,15.94897000
-49.31442677,15.94897000
-49.27442677,15.94897000
-49.23442677,17.71294000
-49.19442677,19.47691000
-49.15442677,19.47691000
-49.11442677,21.24088000
-49.07442677,23.00485000
-49.03442677,23.00485000
-48.99442677,24.76882000
-48.95442677,24.76882000
-48.91442677,26.53279000
-48.87442677,28.29676000
-48.83442677,30.06684000
-48.79442677,30.06684000
-48.75442677,30.06684000
-48.71442677,31.83080000
-48.67442677,31.83080000
-48.63442677,33.59477000
-48.59442677,35.35874000
-48.55442677,35.35874000
-48.51442677,37.12271000
-48.47442677,37.12271000
-48.43442677,37.12271000
-48.39442677,38.88668000
-48.35442677,40.65065000
-48.31442677,40.65065000
-48.27442677,42.41463000
-48.23442677,44.17860000
-48.19442677,44.17860000
-48.15442677,44.17860000
-48.11442678,47.70654000
-48.07442678,47.70654000
-48.03442678,49.47050000
-47.99442678,49.47050000
-47.95442678,51.23447000
-47.91442678,51.23447000
-47.87442678,52.99844000
-47.83442678,52.99844000
-47.79442678,52.99844000
-47.75442678,56.52638000
-47.71442678,56.52638000
-47.67442678,58.29646000
-47.63442678,58.29646000
-47.59442678,58.29646000
-47.55442678,60.06042000
-47.51442678,60.06042000
-47.47442678,61.82440000
-47.43442678,63.58836000
-47.39442678,63.58836000
-47.35442678,65.35233000
-47.31442678,65.35233000
-47.27442678,65.35233000
-47.23442678,65.35233000
-47.19442678,67.11631000
-47.15442678,67.11631000
-47.11442678,70.64425000
-47.07442678,70.64425000
-47.03442678,70.64425000
-46.99442678,72.40822000
-46.95442678,72.40822000
-46.91442678,72.40822000
-46.87442678,74.17219000
-46.83442678,74.17219000
-46.79442678,75.93616000
-46.75442678,77.70013000
-46.71442678,77.70013000
-46.67442678,77.70013000
-46.63442678,79.46410000
-46.59442678,79.46410000
-46.55442678,79.46410000
-46.51442678,81.22807000
-46.47442679,81.22807000
-46.43442679,81.22807000
-46.39442679,82.99203000
-46.35442679,82.99203000
-46.31442679,84.75600000
-46.27442679,84.75600000
-46.23442679,86.52608000
-46.19442679,86.52608000
-46.15442679,86.52608000
-46.11442679,88.29005000
-46.07442679,88.29005000
-46.03442679,88.29005000
-45.99442679,90.05402000
-45.95442679,90.05402000
-45.91442679,91.81799000
-45.87442679,91.81799000
-45.83442679,91.81799000
-45.79442679,91.81799000
-45.75442679,93.58195000
-45.71442679,93.58195000
-45.67442679,93.58195000
-45.63442679,93.58195000
-45.59442679,95.34592000
-45.55442679,95.34592000
-45.51442679,95.34592000
-45.47442679,97.10989000
-45.43442679,97.10989000
-45.39442679,97.10989000
-45.35442679,98.87386000
-45.31442679,98.87386000
-45.27442679,98.87386000
-45.23442679,100.63780000
-45.19442679,100.63780000
-45.15442679,100.63780000
-45.11442679,100.63780000
-45.07442679,100.63780000
-45.03442679,100.63780000
-44.99442679,100.63780000
-44.95442679,102.40180000
-44.91442679,102.40180000
-44.87442679,104.16580000
-44.83442680,104.16580000
-44.79442680,104.16580000
-44.75442680,105.92970000
-44.71442680,105.92970000
-44.67442680,105.92970000
-44.63442680,105.92970000
-44.59442680,105.92970000
-44.55442680,105.92970000
-44.51442680,107.69370000
-44.47442680,107.69370000
-44.43442680,107.69370000
-44.39442680,107.69370000
-44.35442680,107.69370000
-44.31442680,107.69370000
-44.27442680,107.69370000
-44.23442680,107.69370000
-44.19442680,107.69370000
-44.15442680,107.69370000
-44.11442680,107.69370000
-44.07442680,107.69370000
-44.03442680,107.69370000
-43.99442680,109.45770000
-43.95442680,107.69370000
-43.91442680,109.45770000
-43.87442680,109.45770000
-43.83442680,107.69370000
-43.79442680,109.45770000
-43.75442680,109.45770000
-43.71442680,109.45770000
-43.67442680,109.45770000
-43.63442680,109.45770000
-43.59442680,109.45770000
-43.55442680,109.45770000
-43.51442680,109.45770000
-43.47442680,109.45770000
-43.43442680,109.45770000
-43.39442680,109.45770000
-43.35442680,107.69370000
-43.31442680,109.45770000
-43.27442680,109.45770000
-43.23442680,109.45770000
-43.19442681,109.45770000
-43.15442681,109.45770000
-43.11442681,109.45770000
-43.07442681,109.45770000
-43.03442681,109.45770000
-42.99442681,109.45770000
-42.95442681,107.69370000
-42.91442681,107.69370000
-42.87442681,107.69370000
-42.83442681,105.92970000
-42.79442681,107.69370000
-42.75442681,107.69370000
-42.71442681,107.69370000
-42.67442681,107.69370000
-42.63442681,107.69370000
-42.59442681,107.69370000
-42.55442681,107.69370000
-42.51442681,105.92970000
-42.47442681,105.92970000
-42.43442681,105.92970000
-42.39442681,105.92970000
-42.35442681,105.92970000
-42.31442681,105.92970000
-42.27442681,104.16580000
-42.23442681,104.16580000
-42.19442681,104.16580000
-42.15442681,104.16580000
-42.11442681,102.40180000
-42.07442681,104.16580000
-42.03442681,102.40180000
-41.99442681,100.63780000
-41.95442681,100.63780000
-41.91442681,100.63780000
-41.87442681,100.63780000
-41.83442681,100.63780000
-41.79442681,98.87386000
-41.75442681,98.87386000
-41.71442681,98.87386000
-41.67442681,98.87386000
-41.63442681,97.10989000
-41.59442681,97.10989000
-41.55442682,97.10989000
-41.51442682,95.34592000
-41.47442682,95.34592000
-41.43442682,95.34592000
-41.39442682,93.58195000
-41.35442682,93.58195000
-41.31442682,93.58195000
-41.27442682,93.58195000
-41.23442682,93.58195000
-41.19442682,91.81799000
-41.15442682,91.81799000
-41.11442682,91.81799000
-41.07442682,90.05402000
-41.03442682,90.05402000
-40.99442682,88.29005000
-40.95442682,88.29005000
-40.91442682,86.52608000
-40.87442682,86.52608000
-40.83442682,86.52608000
-40.79442682,86.52608000
-40.75442682,84.75600000
-40.71442682,84.75600000
-40.67442682,84.75600000
-40.63442682,81.22807000
-40.59442682,81.22807000
-40.55442682,81.22807000
-40.51442682,79.46410000
-40.47442682,79.46410000
-40.43442682,79.46410000
-40.39442682,77.70013000
-40.35442682,77.70013000
-40.31442682,77.70013000
-40.27442682,75.93616000
-40.23442682,75.93616000
-40.19442682,74.17219000
-40.15442682,74.17219000
-40.11442682,72.40822000
-40.07442682,72.40822000
-40.03442682,72.40822000
-39.99442682,70.64425000
-39.95442682,70.64425000
-39.91442683,70.64425000
-39.87442683,67.11631000
-39.83442683,67.11631000
-39.79442683,65.35233000
-39.75442683,65.35233000
-39.71442683,65.35233000
-39.67442683,63.58836000
-39.63442683,63.58836000
-39.59442683,61.82440000
-39.55442683,61.82440000
-39.51442683,60.06042000
-39.47442683,58.29646000
-39.43442683,58.29646000
-39.39442683,58.29646000
-39.35442683,56.52638000
-39.31442683,56.52638000
-39.27442683,52.99844000
-39.23442683,52.99844000
-39.19442683,52.99844000
-39.15442683,51.23447000
-39.11442683,51.23447000
-39.07442683,49.47050000
-39.03442683,49.47050000
-38.99442683,49.47050000
-38.95442683,45.94257000
-38.91442683,45.94257000
-38.87442683,44.17860000
-38.83442683,44.17860000
-38.79442683,44.17860000
-38.75442683,42.41463000
-38.71442683,42.41463000
-38.67442683,38.88668000
-38.63442683,38.88668000
-38.59442683,37.12271000
-38.55442683,37.12271000
-38.51442683,37.12271000
-38.47442683,35.35874000
-38.43442683,35.35874000
-38.39442683,33.59477000
-38.35442683,31.83080000
-38.31442683,30.06684000
-38.27442684,30.06684000
-38.23442684,30.06684000
-38.19442684,28.29676000
-38.15442684,28.29676000
-38.11442684,24.76882000
-38.07442684,24.76882000
-38.03442684,24.76882000
-37.99442684,23.00485000
-37.95442684,21.24088000
-37.91442684,21.24088000
-37.87442684,19.47691000
-37.83442684,17.71294000
-37.79442684,17.71294000
-37.75442684,15.94897000
-37.71442684,15.94897000
-37.67442684,14.18500000
-37.63442684,14.18500000
-37.59442684,14.18500000
-37.55442684,10.65706000
-37.51442684,8.89309300
-37.47442684,8.89309300
-37.43442684,8.89309300
-37.39442684,7.12912400
-37.35442684,7.12912400
-37.31442684,3.60118400
-37.27442684,3.60118400
-37.23442684,1.83721400
-37.19442684,1.83721400
-37.15442684,0.07324442
-37.11442684,0.07324442
-37.07442684,-1.69072500
-37.03442684,-3.45469500
-36.99442684,-5.21866500
-36.95442684,-5.21866500
-36.91442684,-5.21866500
-36.87442684,-6.98263500
-36.83442684,-6.98263500
-36.79442684,-8.74660500
-36.75442684,-10.51057000
-36.71442684,-12.27454000
-36.67442684,-12.27454000
-36.63442684,-14.03851000
-36.59442685,-14.03851000
-36.55442685,-15.80248000
-36.51442685,-15.80248000
-36.47442685,-17.56645000
-36.43442685,-19.33042000
-36.39442685,-19.33042000
-36.35442685,-21.09439000
-36.31442685,-21.09439000
-36.27442685,-22.85836000
-36.23442685,-24.62233000
-36.19442685,-26.39241000
-36.15442685,-26.39241000
-36.11442685,-26.39241000
-36.07442685,-28.15638000
-36.03442685,-28.15638000
-35.99442685,-29.92035000
-35.95442685,-31.68431000
-35.91442685,-31.68431000
-35.87442685,-33.44828000
-35.83442685,-33.44828000
-35.79442685,-35.21225000
-35.75442685,-35.21225000
-35.71442685,-36.97623000
-35.67442685,-38.74020000
-35.63442685,-38.74020000
-35.59442685,-40.50417000
-35.55442685,-40.50417000
-35.51442685,-40.50417000
-35.47442685,-40.50417000
-35.43442685,-42.26814000
-35.39442685,-45.79607000
-35.35442685,-45.79607000
-35.31442685,-47.56004000
-35.27442685,-47.56004000
-35.23442685,-47.56004000
-35.19442685,-49.32401000
-35.15442685,-49.32401000
-35.11442685,-51.08798000
-35.07442685,-51.08798000
-35.03442685,-52.85195000
-34.99442685,-54.62203000
-34.95442686,-54.62203000
-34.91442686,-54.62203000
-34.87442686,-56.38600000
-34.83442686,-56.38600000
-34.79442686,-59.91394000
-34.75442686,-59.91394000
-34.71442686,-58.14997000
-34.67442686,-61.67791000
-34.63442686,-61.67791000
-34.59442686,-61.67791000
-34.55442686,-63.44188000
-34.51442686,-63.44188000
-34.47442686,-63.44188000
-34.43442686,-66.96982000
-34.39442686,-66.96982000
-34.35442686,-66.96982000
-34.31442686,-68.73379000
-34.27442686,-68.73379000
-34.23442686,-68.73379000
-34.19442686,-70.49776000
-34.15442686,-70.49776000
-34.11442686,-70.49776000
-34.07442686,-72.26173000
-34.03442686,-74.02570000
-33.99442686,-74.02570000
-33.95442686,-75.78967000
-33.91442686,-75.78967000
-33.87442686,-75.78967000
-33.83442686,-77.55363000
-33.79442686,-77.55363000
-33.75442686,-77.55363000
-33.71442686,-79.31760000
-33.67442686,-79.31760000
-33.63442686,-81.08157000
-33.59442686,-81.08157000
-33.55442686,-82.85165000
-33.51442686,-82.85165000
-33.47442686,-82.85165000
-33.43442686,-82.85165000
-33.39442686,-82.85165000
-33.35442686,-84.61562000
-33.31442687,-84.61562000
-33.27442687,-86.37959000
-33.23442687,-86.37959000
-33.19442687,-88.14356000
-33.15442687,-88.14356000
-33.11442687,-88.14356000
-33.07442687,-88.14356000
-33.03442687,-89.90753000
-32.99442687,-89.90753000
-32.95442687,-89.90753000
-32.91442687,-89.90753000
-32.87442687,-89.90753000
-32.83442687,-91.67150000
-32.79442687,-91.67150000
-32.75442687,-91.67150000
-32.71442687,-91.67150000
-32.67442687,-93.43547000
-32.63442687,-93.43547000
-32.59442687,-95.19944000
-32.55442687,-95.19944000
-32.51442687,-95.19944000
-32.47442687,-95.19944000
-32.43442687,-95.19944000
-32.39442687,-95.19944000
-32.35442687,-96.96341000
-32.31442687,-96.96341000
-32.27442687,-96.96341000
-32.23442687,-96.96341000
-32.19442687,-96.96341000
-32.15442687,-96.96341000
-32.11442687,-96.96341000
-32.07442687,-98.72738000
-32.03442687,-98.72738000
-31.99442687,-98.72738000
-31.95442687,-98.72738000
-31.91442687,-98.72738000
-31.87442687,-98.72738000
-31.83442687,-100.49130000
-31.79442687,-102.25530000
-31.75442687,-102.25530000
-31.71442687,-102.25530000
-31.67442688,-100.49130000
-31.63442688,-100.49130000
-31.59442688,-102.25530000
-31.55442688,-102.25530000
-31.51442688,-102.25530000
-31.47442688,-102.25530000
-31.43442688,-102.25530000
-31.39442688,-102.25530000
-31.35442688,-102.25530000
-31.31442688,-102.25530000
-31.27442688,-102.25530000
-31.23442688,-102.25530000
-31.19442688,-102.25530000
-31.15442688,-104.01930000
-31.11442688,-102.25530000
-31.07442688,-102.25530000
-31.03442688,-102.25530000
-30.99442688,-102.25530000
-30.95442688,-104.01930000
-30.91442688,-102.25530000
-30.87442688,-102.25530000
-30.83442688,-104.01930000
-30.79442688,-102.25530000
-30.75442688,-102.25530000
-30.71442688,-102.25530000
-30.67442688,-102.25530000
-30.63442688,-102.25530000
-30.59442688,-102.25530000
-30.55442688,-102.25530000
-30.51442688,-102.25530000
-30.47442688,-102.25530000
-30.43442688,-100.49130000
-30.39442688,-102.25530000
-30.35442688,-102.25530000
-30.31442688,-100.49130000
-30.27442688,-98.72738000
-30.23442688,-98.72738000
-30.19442688,-98.72738000
-30.15442688,-98.72738000
-30.11442688,-98.72738000
-30.07442688,-98.72738000
-30.03442689,-98.72738000
-29.99442689,-98.72738000
-29.95442689,-96.96341000
-29.91442689,-96.96341000
-29.87442689,-96.96341000
-29.83442689,-96.96341000
-29.79442689,-96.96341000
-29.75442689,-96.96341000
-29.71442689,-96.96341000
-29.67442689,-96.96341000
-29.63442689,-96.96341000
-29.59442689,-95.19944000
-29.55442689,-95.19944000
-29.51442689,-95.19944000
-29.47442689,-95.19944000
-29.43442689,-93.43547000
-29.39442689,-93.43547000
-29.35442689,-93.43547000
-29.31442689,-91.67150000
-29.27442689,-91.67150000
-29.23442689,-91.67150000
-29.19442689,-91.67150000
-29.15442689,-89.90753000
-29.11442689,-89.90753000
-29.07442689,-89.90753000
-29.03442689,-89.90753000
-28.99442689,-89.90753000
-28.95442689,-88.14356000
-28.91442689,-88.14356000
-28.87442689,-88.14356000
-28.83442689,-86.37959000
-28.79442689,-84.61562000
-28.75442689,-84.61562000
-28.71442689,-84.61562000
-28.67442689,-84.61562000
-28.63442689,-82.85165000
-28.59442689,-82.85165000
-28.55442689,-82.85165000
-28.51442689,-82.85165000
-28.47442689,-81.08157000
-28.43442689,-81.08157000
-28.39442690,-81.08157000
-28.35442690,-79.31760000
-28.31442690,-77.55363000
-28.27442690,-77.55363000
-28.23442690,-77.55363000
-28.19442690,-75.78967000
-28.15442690,-75.78967000
-28.11442690,-74.02570000
-28.07442690,-75.78967000
-28.03442690,-75.78967000
-27.99442690,-72.26173000
-27.95442690,-72.26173000
-27.91442690,-70.49776000
-27.87442690,-70.49776000
-27.83442690,-70.49776000
-27.79442690,-68.73379000
-27.75442690,-68.73379000
-27.71442690,-68.73379000
-27.67442690,-68.73379000
-27.63442690,-66.96982000
-27.59442690,-65.20585000
-27.55442690,-65.20585000
-27.51442690,-63.44188000
-27.47442690,-63.44188000
-27.43442690,-61.67791000
-27.39442690,-61.67791000
-27.35442690,-59.91394000
-27.31442690,-59.91394000
-27.27442690,-59.91394000
-27.23442690,-58.14997000
-27.19442690,-56.38600000
-27.15442690,-56.38600000
-27.11442690,-56.38600000
-27.07442690,-54.62203000
-27.03442690,-54.62203000
-26.99442690,-52.85195000
-26.95442690,-52.85195000
-26.91442690,-51.08798000
-26.87442690,-49.32401000
-26.83442690,-47.56004000
-26.79442690,-49.32401000
-26.75442691,-47.56004000
-26.71442691,-45.79607000
-26.67442691,-45.79607000
-26.63442691,-44.03210000
-26.59442691,-42.26814000
-26.55442691,-42.26814000
-26.51442691,-40.50417000
-26.47442691,-40.50417000
-26.43442691,-38.74020000
-26.39442691,-38.74020000
-26.35442691,-36.97623000
-26.31442691,-35.21225000
-26.27442691,-35.21225000
-26.23442691,-33.44828000
-26.19442691,-33.44828000
-26.15442691,-33.44828000
-26.11442691,-33.44828000
-26.07442691,-31.68431000
-26.03442691,-28.15638000
-25.99442691,-28.15638000
-25.95442691,-28.15638000
-25.91442691,-26.39241000
-25.87442691,-26.39241000
-25.83442691,-24.62233000
-25.79442691,-24.62233000
-25.75442691,-22.85836000
-25.71442691,-21.09439000
-25.67442691,-21.09439000
-25.63442691,-19.33042000
-25.59442691,-17.56645000
-25.55442691,-17.56645000
-25.51442691,-17.56645000
-25.47442691,-14.03851000
-25.43442691,-14.03851000
-25.39442691,-12.27454000
-25.35442691,-12.27454000
-25.31442691,-10.51057000
-25.27442691,-8.74660500
-25.23442691,-8.74660500
-25.19442691,-6.98263500
-25.15442691,-6.98263500
-25.11442691,-5.21866500
-25.07442692,-5.21866500
-25.03442692,-3.45469500
-24.99442692,-3.45469500
-24.95442692,-1.69072500
-24.91442692,0.07324442
-24.87442692,1.83721400
-24.83442692,1.83721400
-24.79442692,3.60118400
-24.75442692,3.60118400
-24.71442692,5.36515400
-24.67442692,7.12912400
-24.63442692,7.12912400
-24.59442692,8.89309300
-24.55442692,8.89309300
-24.51442692,8.89309300
-24.47442692,10.65706000
-24.43442692,14.18500000
-24.39442692,14.18500000
-24.35442692,14.18500000
-24.31442692,15.94897000
-24.27442692,15.94897000
-24.23442692,17.71294000
-24.19442692,17.71294000
-24.15442692,19.47691000
-24.11442692,21.24088000
-24.07442692,23.00485000
-24.03442692,23.00485000
-23.99442692,23.00485000
-23.95442692,24.76882000
-23.91442692,26.53279000
-23.87442692,28.29676000
-23.83442692,28.29676000
-23.79442692,30.06684000
-23.75442692,30.06684000
-23.71442692,31.83080000
-23.67442692,31.83080000
-23.63442692,33.59477000
-23.59442692,35.35874000
-23.55442692,35.35874000
-23.51442692,37.12271000
-23.47442692,37.12271000
-23.43442693,37.12271000
-23.39442693,38.88668000
-23.35442693,40.65065000
-23.31442693,42.41463000
-23.27442693,42.41463000
-23.23442693,44.17860000
-23.19442693,44.17860000
-23.15442693,44.17860000
-23.11442693,45.94257000
-23.07442693,47.70654000
-23.03442693,49.47050000
-22.99442693,49.47050000
-22.95442693,51.23447000
-22.91442693,51.23447000
-22.87442693,51.23447000
-22.83442693,51.23447000
-22.79442693,56.52638000
-22.75442693,56.52638000
-22.71442693,56.52638000
-22.67442693,56.52638000
-22.63442693,58.29646000
-22.59442693,58.29646000
-22.55442693,60.06042000
-22.51442693,60.06042000
-22.47442693,61.82440000
-22.43442693,61.82440000
-22.39442693,63.58836000
-22.35442693,65.35233000
-22.31442693,65.35233000
-22.27442693,65.35233000
-22.23442693,67.11631000
-22.19442693,67.11631000
-22.15442693,68.88028000
-22.11442693,70.64425000
-22.07442693,70.64425000
-22.03442693,70.64425000
-21.99442693,72.40822000
-21.95442693,72.40822000
-21.91442693,72.40822000
-21.87442693,74.17219000
-21.83442693,75.93616000
-21.79442694,77.70013000
-21.75442694,77.70013000
-21.71442694,77.70013000
-21.67442694,79.46410000
-21.63442694,79.46410000
-21.59442694,79.46410000
-21.55442694,79.46410000
-21.51442694,81.22807000
-21.47442694,81.22807000
-21.43442694,81.22807000
-21.39442694,82.99203000
-21.35442694,84.75600000
-21.31442694,84.75600000
-21.27442694,84.75600000
-21.23442694,86.52608000
-21.19442694,86.52608000
-21.15442694,86.52608000
-21.11442694,88.29005000
-21.07442694,88.29005000
-21.03442694,88.29005000
-20.99442694,90.05402000
-20.95442694,90.05402000
-20.91442694,91.81799000
-20.87442694,91.81799000
-20.83442694,91.81799000
-20.79442694,91.81799000
-20.75442694,93.58195000
-20.71442694,93.58195000
-20.67442694,93.58195000
-20.63442694,95.34592000
-20.59442694,95.34592000
-20.55442694,95.34592000
-20.51442694,95.34592000
-20.47442694,95.34592000
-20.43442694,97.10989000
-20.39442694,98.87386000
-20.35442694,98.87386000
-20.31442694,98.87386000
-20.27442694,98.87386000
-20.23442694,100.63780000
-20.19442694,100.63780000
-20.15442695,100.63780000
-20.11442695,100.63780000
-20.07442695,100.63780000
-20.03442695,100.63780000
-19.99442695,104.16580000
-19.95442695,102.40180000
-19.91442695,102.40180000
-19.87442695,102.40180000
-19.83442695,104.16580000
-19.79442695,105.92970000
-19.75442695,105.92970000
-19.71442695,105.92970000
-19.67442695,105.92970000
-19.63442695,105.92970000
-19.59442695,105.92970000
-19.55442695,105.92970000
-19.51442695,105.92970000
-19.47442695,107.69370000
-19.43442695,105.92970000
-19.39442695,107.69370000
-19.35442695,107.69370000
-19.31442695,107.69370000
-19.27442695,107.69370000
-19.23442695,107.69370000
-19.19442695,107.69370000
-19.15442695,107.69370000
-19.11442695,109.45770000
-19.07442695,107.69370000
-19.03442695,109.45770000
-18.99442695,109.45770000
-18.95442695,109.45770000
-18.91442695,109.45770000
-18.87442695,109.45770000
-18.83442695,109.45770000
-18.79442695,109.45770000
-18.75442695,109.45770000
-18.71442695,109.45770000
-18.67442695,109.45770000
-18.63442695,109.45770000
-18.59442695,109.45770000
-18.55442695,109.45770000
-18.51442696,107.69370000
-18.47442696,109.45770000
-18.43442696,109.45770000
-18.39442696,109.45770000
-18.35442696,109.45770000
-18.31442696,109.45770000
-18.27442696,109.45770000
-18.23442696,109.45770000
-18.19442696,109.45770000
-18.15442696,107.69370000
-18.11442696,107.69370000
-18.07442696,109.45770000
-18.03442696,107.69370000
-17.99442696,109.45770000
-17.95442696,107.69370000
-17.91442696,107.69370000
-17.87442696,107.69370000
-17.83442696,107.69370000
-17.79442696,107.69370000
-17.75442696,107.69370000
-17.71442696,107.69370000
-17.67442696,107.69370000
-17.63442696,107.69370000
-17.59442696,107.69370000
-17.55442696,105.92970000
-17.51442696,107.69370000
-17.47442696,105.92970000
-17.43442696,105.92970000
-17.39442696,105.92970000
-17.35442696,105.92970000
-17.31442696,105.92970000
-17.27442696,104.16580000
-17.23442696,105.92970000
-17.19442696,104.16580000
-17.15442696,102.40180000
-17.11442696,102.40180000
-17.07442696,102.40180000
-17.03442696,102.40180000
-16.99442696,100.63780000
-16.95442696,100.63780000
-16.91442696,100.63780000
-16.87442697,100.63780000
-16.83442697,98.87386000
-16.79442697,100.63780000
-16.75442697,98.87386000
-16.71442697,98.87386000
-16.67442697,98.87386000
-16.63442697,97.10989000
-16.59442697,97.10989000
-16.55442697,95.34592000
-16.51442697,95.34592000
-16.47442697,95.34592000
-16.43442697,93.58195000
-16.39442697,93.58195000
-16.35442697,93.58195000
-16.31442697,93.58195000
-16.27442697,93.58195000
-16.23442697,93.58195000
-16.19442697,91.81799000
-16.15442697,91.81799000
-16.11442697,91.81799000
-16.07442697,90.05402000
-16.03442697,88.29005000
-15.99442697,88.29005000
-15.95442697,88.29005000
-15.91442697,86.52608000
-15.87442697,86.52608000
-15.83442697,86.52608000
-15.79442697,86.52608000
-15.75442697,86.52608000
-15.71442697,84.75600000
-15.67442697,82.99203000
-15.63442697,82.99203000
-15.59442697,81.22807000
-15.55442697,81.22807000
-15.51442697,79.46410000
-15.47442697,79.46410000
-15.43442697,79.46410000
-15.39442697,79.46410000
-15.35442697,77.70013000
-15.31442697,77.70013000
-15.27442697,75.93616000
-15.23442698,75.93616000
-15.19442698,74.17219000
-15.15442698,74.17219000
-15.11442698,72.40822000
-15.07442698,72.40822000
-15.03442698,72.40822000
-14.99442698,70.64425000
-14.95442698,70.64425000
-14.91442698,70.64425000
-14.87442698,67.11631000
-14.83442698,67.11631000
-14.79442698,65.35233000
-14.75442698,65.35233000
-14.71442698,65.35233000
-14.67442698,63.58836000
-14.63442698,63.58836000
-14.59442698,61.82440000
-14.55442698,60.06042000
-14.51442698,60.06042000
-14.47442698,58.29646000
-14.43442698,58.29646000
-14.39442698,58.29646000
-14.35442698,56.52638000
-14.31442698,56.52638000
-14.27442698,54.76241000
-14.23442698,52.99844000
-14.19442698,52.99844000
-14.15442698,51.23447000
-14.11442698,51.23447000
-14.07442698,51.23447000
-14.03442698,49.47050000
-13.99442698,49.47050000
-13.95442698,47.70654000
-13.91442698,45.94257000
-13.87442698,44.17860000
-13.83442698,44.17860000
-13.79442698,42.41463000
-13.75442698,42.41463000
-13.71442698,42.41463000
-13.67442698,40.65065000
-13.63442698,38.88668000
-13.59442699,37.12271000
-13.55442699,37.12271000
-13.51442699,37.12271000
-13.47442699,35.35874000
-13.43442699,35.35874000
-13.39442699,31.83080000
-13.35442699,31.83080000
-13.31442699,30.06684000
-13.27442699,30.06684000
-13.23442699,30.06684000
-13.19442699,28.29676000
-13.15442699,24.76882000
-13.11442699,24.76882000
-13.07442699,26.53279000
-13.03442699,23.00485000
-12.99442699,23.00485000
-12.95442699,21.24088000
-12.91442699,21.24088000
-12.87442699,21.24088000
-12.83442699,19.47691000
-12.79442699,17.71294000
-12.75442699,15.94897000
-12.71442699,15.94897000
-12.67442699,15.94897000
-12.63442699,14.18500000
-12.59442699,12.42103000
-12.55442699,10.65706000
-12.51442699,8.89309300
-12.47442699,8.89309300
-12.43442699,8.89309300
-12.39442699,7.12912400
-12.35442699,5.36515400
-12.31442699,3.60118400
-12.27442699,3.60118400
-12.23442699,1.83721400
-12.19442699,1.83721400
-12.15442699,0.07324442
-12.11442699,0.07324442
-12.07442699,-1.69072500
-12.03442699,-3.45469500
-11.99442699,-5.21866500
-11.95442699,-5.21866500
-11.91442700,-5.21866500
-11.87442700,-6.98263500
-11.83442700,-6.98263500
-11.79442700,-10.51057000
-11.75442700,-10.51057000
-11.71442700,-10.51057000
-11.67442700,-12.27454000
-11.63442700,-12.27454000
-11.59442700,-14.03851000
-11.55442700,-15.80248000
-11.51442700,-17.56645000
-11.47442700,-17.56645000
-11.43442700,-19.33042000
-11.39442700,-19.33042000
-11.35442700,-21.09439000
-11.31442700,-21.09439000
-11.27442700,-24.62233000
-11.23442700,-24.62233000
-11.19442700,-26.39241000
-11.15442700,-26.39241000
-11.11442700,-26.39241000
-11.07442700,-28.15638000
-11.03442700,-28.15638000
-10.99442700,-29.92035000
-10.95442700,-31.68431000
-10.91442700,-31.68431000
-10.87442700,-33.44828000
-10.83442700,-33.44828000
-10.79442700,-35.21225000
-10.75442700,-35.21225000
-10.71442700,-35.21225000
-10.67442700,-38.74020000
-10.63442700,-38.74020000
-10.59442700,-40.50417000
-10.55442700,-40.50417000
-10.51442700,-40.50417000
-10.47442700,-42.26814000
-10.43442700,-42.26814000
-10.39442700,-44.03210000
-10.35442700,-45.79607000
-10.31442700,-47.56004000
-10.27442701,-47.56004000
-10.23442701,-47.56004000
-10.19442701,-49.32401000
-10.15442701,-49.32401000
-10.11442701,-51.08798000
-10.07442701,-52.85195000
-10.03442701,-52.85195000
-9.99442701,-54.62203000
-9.95442701,-54.62203000
-9.91442701,-54.62203000
-9.87442701,-56.38600000
-9.83442701,-56.38600000
-9.79442701,-58.14997000
-9.75442701,-59.91394000
-9.71442701,-59.91394000
-9.67442701,-59.91394000
-9.63442701,-61.67791000
-9.59442701,-61.67791000
-9.55442701,-63.44188000
-9.51442701,-63.44188000
-9.47442701,-63.44188000
-9.43442701,-65.20585000
-9.39442701,-66.96982000
-9.35442701,-66.96982000
-9.31442701,-68.73379000
-9.27442701,-68.73379000
-9.23442701,-68.73379000
-9.19442701,-70.49776000
-9.15442701,-70.49776000
-9.11442701,-70.49776000
-9.07442701,-74.02570000
-9.03442701,-74.02570000
-8.99442701,-74.02570000
-8.95442701,-75.78967000
-8.91442701,-75.78967000
-8.87442701,-75.78967000
-8.83442701,-75.78967000
-8.79442701,-77.55363000
-8.75442701,-77.55363000
-8.71442701,-77.55363000
-8.67442701,-79.31760000
-8.63442702,-81.08157000
-8.59442702,-81.08157000
-8.55442702,-81.08157000
-8.51442702,-82.85165000
-8.47442702,-82.85165000
-8.43442702,-82.85165000
-8.39442702,-82.85165000
-8.35442702,-84.61562000
-8.31442702,-84.61562000
-8.27442702,-84.61562000
-8.23442702,-84.61562000
-8.19442702,-86.37959000
-8.15442702,-88.14356000
-8.11442702,-88.14356000
-8.07442702,-88.14356000
-8.03442702,-88.14356000
-7.99442702,-89.90753000
-7.95442702,-89.90753000
-7.91442702,-89.90753000
-7.87442702,-89.90753000
-7.83442702,-89.90753000
-7.79442702,-91.67150000
-7.75442702,-91.67150000
-7.71442702,-91.67150000
-7.67442702,-91.67150000
-7.63442702,-93.43547000
-7.59442702,-93.43547000
-7.55442702,-95.19944000
-7.51442702,-95.19944000
-7.47442702,-95.19944000
-7.43442702,-95.19944000
-7.39442702,-96.96341000
-7.35442702,-96.96341000
-7.31442702,-96.96341000
-7.27442702,-96.96341000
-7.23442702,-96.96341000
-7.19442702,-96.96341000
-7.15442702,-96.96341000
-7.11442702,-96.96341000
-7.07442702,-96.96341000
-7.03442702,-98.72738000
-6.99442703,-98.72738000
-6.95442703,-98.72738000
-6.91442703,-98.72738000
-6.87442703,-98.72738000
-6.83442703,-98.72738000
-6.79442703,-100.49130000
-6.75442703,-98.72738000
-6.71442703,-100.49130000
-6.67442703,-100.49130000
-6.63442703,-100.49130000
-6.59442703,-102.25530000
-6.55442703,-102.25530000
-6.51442703,-102.25530000
-6.47442703,-102.25530000
-6.43442703,-102.25530000
-6.39442703,-102.25530000
-6.35442703,-102.25530000
-6.31442703,-102.25530000
-6.27442703,-102.25530000
-6.23442703,-102.25530000
-6.19442703,-102.25530000
-6.15442703,-102.25530000
-6.11442703,-102.25530000
-6.07442703,-102.25530000
-6.03442703,-102.25530000
-5.99442703,-102.25530000
-5.95442703,-102.25530000
-5.91442703,-102.25530000
-5.87442703,-102.25530000
-5.83442703,-102.25530000
-5.79442703,-102.25530000
-5.75442703,-102.25530000
-5.71442703,-102.25530000
-5.67442703,-102.25530000
-5.63442703,-102.25530000
-5.59442703,-102.25530000
-5.55442703,-102.25530000
-5.51442703,-102.25530000
-5.47442703,-102.25530000
-5.43442703,-102.25530000
-5.39442703,-102.25530000
-5.35442704,-102.25530000
-5.31442704,-100.49130000
-5.27442704,-98.72738000
-5.23442704,-100.49130000
-5.19442704,-98.72738000
-5.15442704,-100.49130000
-5.11442704,-100.49130000
-5.07442704,-96.96341000
-5.03442704,-98.72738000
-4.99442704,-98.72738000
-4.95442704,-98.72738000
-4.91442704,-96.96341000
-4.87442704,-96.96341000
-4.83442704,-96.96341000
-4.79442704,-96.96341000
-4.75442704,-96.96341000
-4.71442704,-96.96341000
-4.67442704,-96.96341000
-4.63442704,-95.19944000
-4.59442704,-95.19944000
-4.55442704,-95.19944000
-4.51442704,-95.19944000
-4.47442704,-93.43547000
-4.43442704,-93.43547000
-4.39442704,-93.43547000
-4.35442704,-93.43547000
-4.31442704,-91.67150000
-4.27442704,-91.67150000
-4.23442704,-91.67150000
-4.19442704,-91.67150000
-4.15442704,-91.67150000
-4.11442704,-89.90753000
-4.07442704,-89.90753000
-4.03442704,-89.90753000
-3.99442704,-88.14356000
-3.95442704,-88.14356000
-3.91442704,-88.14356000
-3.87442704,-88.14356000
-3.83442704,-88.14356000
-3.79442704,-84.61562000
-3.75442704,-86.37959000
-3.71442705,-84.61562000
-3.67442705,-82.85165000
-3.63442705,-82.85165000
-3.59442705,-82.85165000
-3.55442705,-82.85165000
-3.51442705,-82.85165000
-3.47442705,-81.08157000
-3.43442705,-81.08157000
-3.39442705,-81.08157000
-3.35442705,-79.31760000
-3.31442705,-77.55363000
-3.27442705,-77.55363000
-3.23442705,-75.78967000
-3.19442705,-75.78967000
-3.15442705,-75.78967000
-3.11442705,-75.78967000
-3.07442705,-75.78967000
-3.03442705,-74.02570000
-2.99442705,-74.02570000
-2.95442705,-72.26173000
-2.91442705,-72.26173000
-2.87442705,-70.49776000
-2.83442705,-68.73379000
-2.79442705,-68.73379000
-2.75442705,-68.73379000
-2.71442705,-68.73379000
-2.67442705,-66.96982000
-2.63442705,-65.20585000
-2.59442705,-65.20585000
-2.55442705,-63.44188000
-2.51442705,-63.44188000
-2.47442705,-63.44188000
-2.43442705,-61.67791000
-2.39442705,-61.67791000
-2.35442705,-61.67791000
-2.31442705,-59.91394000
-2.27442705,-59.91394000
-2.23442705,-58.14997000
-2.19442705,-56.38600000
-2.15442705,-54.62203000
-2.11442705,-54.62203000
-2.07442706,-54.62203000
-2.03442706,-52.85195000
-1.99442706,-52.85195000
-1.95442706,-51.08798000
-1.91442706,-51.08798000
-1.87442706,-49.32401000
-1.83442706,-47.56004000
-1.79442706,-47.56004000
-1.75442706,-47.56004000
-1.71442706,-45.79607000
-1.67442706,-45.79607000
-1.63442706,-45.79607000
-1.59442706,-42.26814000
-1.55442706,-40.50417000
-1.51442706,-40.50417000
-1.47442706,-40.50417000
-1.43442706,-38.74020000
-1.39442706,-38.74020000
-1.35442706,-36.97623000
-1.31442706,-35.21225000
-1.27442706,-35.21225000
-1.23442706,-33.44828000
-1.19442706,-33.44828000
-1.15442706,-33.44828000
-1.11442706,-31.68431000
-1.07442706,-31.68431000
-1.03442706,-28.15638000
-0.99442706,-28.15638000
-0.95442706,-28.15638000
-0.91442706,-26.39241000
-0.87442706,-24.62233000
-0.83442706,-24.62233000
-0.79442706,-24.62233000
-0.75442706,-22.85836000
-0.71442706,-21.09439000
-0.67442706,-19.33042000
-0.63442706,-19.33042000
-0.59442706,-19.33042000
-0.55442706,-17.56645000
-0.51442706,-15.80248000
-0.47442706,-14.03851000
-0.43442706,-14.03851000
-0.39442707,-12.27454000
-0.35442707,-12.27454000
-0.31442707,-10.51057000
-0.27442707,-8.74660500
-0.23442707,-8.74660500
-0.19442707,-6.98263500
-0.15442707,-5.21866500
-0.11442707,-5.21866500
-0.07442707,-3.45469500
-0.03442707,-3.45469500
0.00557293,-1.69072500
0.04557293,0.07324442
0.08557293,0.07324442
0.12557293,1.83721400
0.16557293,1.83721400
0.20557293,1.83721400
0.24557293,3.60118400
0.28557293,5.36515400
0.32557293,7.12912400
0.36557293,7.12912400
0.40557293,8.89309300
0.44557293,8.89309300
0.48557293,8.89309300
0.52557293,10.65706000
0.56557293,12.42103000
0.60557293,14.18500000
0.64557293,15.94897000
0.68557293,15.94897000
0.72557293,15.94897000
0.76557293,17.71294000
0.80557293,19.47691000
0.84557293,19.47691000
0.88557293,21.24088000
0.92557293,23.00485000
0.96557293,23.00485000
1.00557293,24.76882000
1.04557293,24.76882000
1.08557293,26.53279000
1.12557293,28.29676000
1.16557293,28.29676000
1.20557293,30.06684000
1.24557292,30.06684000
1.28557292,31.83080000
1.32557292,31.83080000
1.36557292,33.59477000
1.40557292,35.35874000
1.44557292,35.35874000
1.48557292,37.12271000
1.52557292,38.88668000
1.56557292,37.12271000
1.60557292,37.12271000
1.64557292,40.65065000
1.68557292,42.41463000
1.72557292,42.41463000
1.76557292,44.17860000
1.80557292,44.17860000
1.84557292,45.94257000
1.88557292,47.70654000
1.92557292,47.70654000
1.96557292,49.47050000
2.00557292,49.47050000
2.04557292,51.23447000
2.08557292,51.23447000
2.12557292,51.23447000
2.16557292,52.99844000
2.20557292,54.76241000
2.24557292,56.52638000
2.28557292,56.52638000
2.32557292,58.29646000
2.36557292,58.29646000
2.40557292,58.29646000
2.44557292,58.29646000
2.48557292,60.06042000
2.52557292,61.82440000
2.56557292,63.58836000
2.60557292,63.58836000
2.64557292,65.35233000
2.68557292,65.35233000
2.72557292,65.35233000
2.76557292,65.35233000
2.80557292,67.11631000
2.84557292,67.11631000
2.88557291,70.64425000
2.92557291,72.40822000
2.96557291,72.40822000
3.00557291,72.40822000
3.04557291,72.40822000
3.08557291,72.40822000
3.12557291,74.17219000
3.16557291,75.93616000
3.20557291,75.93616000
3.24557291,77.70013000
3.28557291,77.70013000
3.32557291,77.70013000
3.36557291,79.46410000
3.40557291,79.46410000
3.44557291,79.46410000
3.48557291,79.46410000
3.52557291,81.22807000
3.56557291,82.99203000
3.60557291,82.99203000
3.64557291,84.75600000
3.68557291,84.75600000
3.72557291,86.52608000
3.76557291,86.52608000
3.80557291,86.52608000
3.84557291,86.52608000
3.88557291,88.29005000
3.92557291,88.29005000
3.96557291,88.29005000
4.00557291,90.05402000
4.04557291,91.81799000
4.08557291,91.81799000
4.12557291,91.81799000
4.16557291,91.81799000
4.20557291,93.58195000
4.24557291,93.58195000
4.28557291,93.58195000
4.32557291,93.58195000
4.36557291,93.58195000
4.40557291,95.34592000
4.44557291,95.34592000
4.48557291,95.34592000
4.52557290,95.34592000
4.56557290,97.10989000
4.60557290,98.87386000
4.64557290,98.87386000
4.68557290,98.87386000
4.72557290,98.87386000
4.76557290,100.63780000
4.80557290,100.63780000
4.84557290,100.63780000
4.88557290,100.63780000
4.92557290,100.63780000
4.96557290,102.40180000
5.00557290,102.40180000
5.04557290,102.40180000
5.08557290,102.40180000
5.12557290,104.16580000
5.16557290,104.16580000
5.20557290,104.16580000
5.24557290,104.16580000
5.28557290,105.92970000
5.32557290,105.92970000
5.36557290,105.92970000
5.40557290,105.92970000
5.44557290,105.92970000
5.48557290,105.92970000
5.52557290,107.69370000
5.56557290,107.69370000
5.60557290,107.69370000
5.64557290,107.69370000
5.68557290,107.69370000
5.72557290,107.69370000
5.76557290,107.69370000
5.80557290,107.69370000
5.84557290,107.69370000
5.88557290,107.69370000
5.92557290,107.69370000
5.96557290,107.69370000
6.00557290,107.69370000
6.04557290,109.45770000
6.08557290,109.45770000
6.12557290,109.45770000
6.16557289,109.45770000
6.20557289,109.45770000
6.24557289,107.69370000
6.28557289,109.45770000
6.32557289,109.45770000
6.36557289,109.45770000
6.40557289,109.45770000
6.44557289,109.45770000
6.48557289,109.45770000
6.52557289,109.45770000
6.56557289,109.45770000
6.60557289,107.69370000
6.64557289,109.45770000
6.68557289,109.45770000
6.72557289,109.45770000
6.76557289,107.69370000
6.80557289,109.45770000
6.84557289,111.22170000
6.88557289,109.45770000
6.92557289,109.45770000
6.96557289,107.69370000
7.00557289,109.45770000
7.04557289,107.69370000
7.08557289,107.69370000
7.12557289,107.69370000
7.16557289,107.69370000
7.20557289,107.69370000
7.24557289,107.69370000
7.28557289,107.69370000
7.32557289,107.69370000
7.36557289,107.69370000
7.40557289,107.69370000
7.44557289,105.92970000
7.48557289,105.92970000
7.52557289,105.92970000
7.56557289,105.92970000
7.60557289,105.92970000
7.64557289,105.92970000
7.68557289,104.16580000
7.72557289,105.92970000
7.76557289,104.16580000
7.80557288,102.40180000
7.84557288,104.16580000
7.88557288,102.40180000
7.92557288,104.16580000
7.96557288,100.63780000
8.00557288,102.40180000
8.04557288,100.63780000
8.08557288,100.63780000
8.12557288,100.63780000
8.16557288,100.63780000
8.20557288,100.63780000
8.24557288,98.87386000
8.28557288,98.87386000
8.32557288,98.87386000
8.36557288,98.87386000
8.40557288,97.10989000
8.44557288,95.34592000
8.48557288,95.34592000
8.52557288,95.34592000
8.56557288,95.34592000
8.60557288,93.58195000
8.64557288,93.58195000
8.68557288,93.58195000
8.72557288,93.58195000
8.76557288,93.58195000
8.80557288,91.81799000
8.84557288,91.81799000
8.88557288,90.05402000
8.92557288,90.05402000
8.96557288,90.05402000
9.00557288,88.29005000
9.04557288,88.29005000
9.08557288,86.52608000
9.12557288,86.52608000
9.16557288,86.52608000
9.20557288,86.52608000
9.24557288,84.75600000
9.28557288,84.75600000
9.32557288,84.75600000
9.36557288,82.99203000
9.40557288,81.22807000
9.44557287,81.22807000
9.48557287,79.46410000
9.52557287,79.46410000
9.56557287,79.46410000
9.60557287,79.46410000
9.64557287,75.93616000
9.68557287,77.70013000
9.72557287,77.70013000
9.76557287,74.17219000
9.80557287,74.17219000
9.84557287,74.17219000
9.88557287,72.40822000
9.92557287,72.40822000
9.96557287,72.40822000
10.00557287,70.64425000
10.04557287,70.64425000
10.08557287,70.64425000
10.12557287,67.11631000
10.16557287,67.11631000
10.20557287,67.11631000
10.24557287,65.35233000
10.28557287,65.35233000
10.32557287,63.58836000
10.36557287,63.58836000
10.40557287,61.82440000
10.44557287,60.06042000
10.48557287,60.06042000
10.52557287,58.29646000
10.56557287,58.29646000
10.60557287,58.29646000
10.64557287,58.29646000
10.68557287,56.52638000
10.72557287,56.52638000
10.76557287,52.99844000
10.80557287,52.99844000
10.84557287,51.23447000
10.88557287,51.23447000
10.92557287,51.23447000
10.96557287,49.47050000
11.00557287,49.47050000
11.04557287,47.70654000
11.08557286,45.94257000
11.12557286,44.17860000
11.16557286,44.17860000
11.20557286,44.17860000
11.24557286,42.41463000
11.28557286,42.41463000
11.32557286,40.65065000
11.36557286,38.88668000
11.40557286,37.12271000
11.44557286,37.12271000
11.48557286,37.12271000
11.52557286,35.35874000
11.56557286,35.35874000
11.60557286,33.59477000
11.64557286,31.83080000
11.68557286,31.83080000
11.72557286,30.06684000
11.76557286,30.06684000
11.80557286,28.29676000
11.84557286,28.29676000
11.88557286,26.53279000
11.92557286,24.76882000
11.96557286,23.00485000
12.00557286,23.00485000
12.04557286,23.00485000
12.08557286,21.24088000
12.12557286,19.47691000
12.16557286,19.47691000
12.20557286,17.71294000
12.24557286,15.94897000
12.28557286,15.94897000
12.32557286,14.18500000
12.36557286,14.18500000
12.40557286,10.65706000
12.44557286,10.65706000
12.48557286,8.89309300
12.52557286,8.89309300
12.56557286,8.89309300
12.60557286,7.12912400
12.64557286,5.36515400
12.68557286,5.36515400
12.72557286,3.60118400
12.76557285,3.60118400
12.80557285,1.83721400
12.84557285,1.83721400
12.88557285,0.07324442
12.92557285,-1.69072500
12.96557285,-3.45469500
13.00557285,-3.45469500
13.04557285,-5.21866500
13.08557285,-5.21866500
13.12557285,-5.21866500
13.16557285,-6.98263500
13.20557285,-8.74660500
13.24557285,-8.74660500
13.28557285,-10.51057000
13.32557285,-12.27454000
13.36557285,-14.03851000
13.40557285,-14.03851000
13.44557285,-15.80248000
13.48557285,-17.56645000
13.52557285,-17.56645000
13.56557285,-19.33042000
13.60557285,-19.33042000
13.64557285,-21.09439000
13.68557285,-21.09439000
13.72557285,-22.85836000
13.76557285,-24.62233000
13.80557285,-26.39241000
13.84557285,-26.39241000
13.88557285,-26.39241000
13.92557285,-28.15638000
13.96557285,-28.15638000
14.00557285,-28.15638000
14.04557285,-31.68431000
14.08557285,-31.68431000
14.12557285,-33.44828000
14.16557285,-33.44828000
14.20557285,-33.44828000
14.24557285,-35.21225000
14.28557285,-35.21225000
14.32557285,-36.97623000
14.36557285,-38.74020000
14.40557284,-40.50417000
14.44557284,-40.50417000
14.48557284,-40.50417000
14.52557284,-42.26814000
14.56557284,-42.26814000
14.60557284,-45.79607000
14.64557284,-45.79607000
14.68557284,-47.56004000
14.72557284,-47.56004000
14.76557284,-47.56004000
14.80557284,-49.32401000
14.84557284,-49.32401000
14.88557284,-51.08798000
14.92557284,-51.08798000
14.96557284,-54.62203000
15.00557284,-54.62203000
15.04557284,-54.62203000
15.08557284,-54.62203000
15.12557284,-56.38600000
15.16557284,-56.38600000
15.20557284,-58.14997000
15.24557284,-59.91394000
15.28557284,-59.91394000
15.32557284,-61.67791000
15.36557284,-61.67791000
15.40557284,-61.67791000
15.44557284,-63.44188000
15.48557284,-63.44188000
15.52557284,-63.44188000
15.56557284,-65.20585000
15.60557284,-66.96982000
15.64557284,-66.96982000
15.68557284,-68.73379000
15.72557284,-68.73379000
15.76557284,-68.73379000
15.80557284,-70.49776000
15.84557284,-70.49776000
15.88557284,-72.26173000
15.92557284,-74.02570000
15.96557284,-74.02570000
16.00557284,-75.78967000
16.04557283,-75.78967000
16.08557283,-75.78967000
16.12557283,-75.78967000
16.16557283,-77.55363000
16.20557283,-77.55363000
16.24557283,-77.55363000
16.28557283,-77.55363000
16.32557283,-79.31760000
16.36557283,-79.31760000
16.40557283,-81.08157000
16.44557283,-82.85165000
16.48557283,-81.08157000
16.52557283,-82.85165000
16.56557283,-84.61562000
16.60557283,-82.85165000
16.64557283,-84.61562000
16.68557283,-84.61562000
16.72557283,-84.61562000
16.76557283,-86.37959000
16.80557283,-88.14356000
16.84557283,-86.37959000
16.88557283,-88.14356000
16.92557283,-88.14356000
16.96557283,-89.90753000
17.00557283,-89.90753000
17.04557283,-89.90753000
17.08557283,-89.90753000
17.12557283,-91.67150000
17.16557283,-91.67150000
17.20557283,-91.67150000
17.24557283,-91.67150000
17.28557283,-91.67150000
17.32557283,-91.67150000
17.36557283,-93.43547000
17.40557283,-93.43547000
17.44557283,-95.19944000
17.48557283,-95.19944000
17.52557283,-95.19944000
17.56557283,-96.96341000
17.60557283,-96.96341000
17.64557283,-96.96341000
17.68557282,-96.96341000
17.72557282,-96.96341000
17.76557282,-96.96341000
17.80557282,-98.72738000
17.84557282,-96.96341000
17.88557282,-96.96341000
17.92557282,-98.72738000
17.96557282,-98.72738000
18.00557282,-98.72738000
18.04557282,-98.72738000
18.08557282,-98.72738000
18.12557282,-98.72738000
18.16557282,-100.49130000
18.20557282,-102.25530000
18.24557282,-102.25530000
18.28557282,-100.49130000
18.32557282,-100.49130000
18.36557282,-100.49130000
18.40557282,-102.25530000
18.44557282,-100.49130000
18.48557282,-100.49130000
18.52557282,-102.25530000
18.56557282,-102.25530000
18.60557282,-102.25530000
18.64557282,-102.25530000
18.68557282,-102.25530000
18.72557282,-102.25530000
18.76557282,-102.25530000
18.80557282,-104.01930000
18.84557282,-102.25530000
18.88557282,-102.25530000
18.92557282,-102.25530000
18.96557282,-102.25530000
19.00557282,-102.25530000
19.04557282,-102.25530000
19.08557282,-102.25530000
19.12557282,-102.25530000
19.16557282,-102.25530000
19.20557282,-102.25530000
19.24557282,-102.25530000
19.28557282,-102.25530000
19.32557281,-102.25530000
19.36557281,-102.25530000
19.40557281,-102.25530000
19.44557281,-102.25530000
19.48557281,-102.25530000
19.52557281,-102.25530000
19.56557281,-100.49130000
19.60557281,-100.49130000
19.64557281,-100.49130000
19.68557281,-98.72738000
19.72557281,-98.72738000
19.76557281,-98.72738000
19.80557281,-98.72738000
19.84557281,-98.72738000
19.88557281,-98.72738000
19.92557281,-98.72738000
19.96557281,-98.72738000
20.00557281,-98.72738000
20.04557281,-98.72738000
20.08557281,-96.96341000
20.12557281,-96.96341000
20.16557281,-96.96341000
20.20557281,-96.96341000
20.24557281,-96.96341000
20.28557281,-96.96341000
20.32557281,-96.96341000
20.36557281,-95.19944000
20.40557281,-95.19944000
20.44557281,-95.19944000
20.48557281,-95.19944000
20.52557281,-93.43547000
20.56557281,-93.43547000
20.60557281,-93.43547000
20.64557281,-91.67150000
20.68557281,-91.67150000
20.72557281,-91.67150000
20.76557281,-91.67150000
20.80557281,-89.90753000
20.84557281,-89.90753000
20.88557281,-89.90753000
20.92557281,-89.90753000
20.96557280,-89.90753000
21.00557280,-89.90753000
21.04557280,-88.14356000
21.08557280,-88.14356000
21.12557280,-88.14356000
21.16557280,-86.37959000
21.20557280,-84.61562000
21.24557280,-84.61562000
21.28557280,-84.61562000
21.32557280,-82.85165000
21.36557280,-84.61562000
21.40557280,-82.85165000
21.44557280,-82.85165000
21.48557280,-82.85165000
21.52557280,-81.08157000
21.56557280,-81.08157000
21.60557280,-79.31760000
21.64557280,-79.31760000
21.68557280,-77.55363000
21.72557280,-77.55363000
21.76557280,-75.78967000
21.80557280,-75.78967000
21.84557280,-75.78967000
21.88557280,-75.78967000
21.92557280,-74.02570000
21.96557280,-74.02570000
22.00557280,-74.02570000
22.04557280,-70.49776000
22.08557280,-70.49776000
22.12557280,-70.49776000
22.16557280,-68.73379000
22.20557280,-68.73379000
22.24557280,-68.73379000
22.28557280,-68.73379000
22.32557280,-66.96982000
22.36557280,-66.96982000
22.40557280,-65.20585000
22.44557280,-63.44188000
22.48557280,-63.44188000
22.52557280,-61.67791000
22.56557280,-61.67791000
22.60557279,-61.67791000
22.64557279,-59.91394000
22.68557279,-59.91394000
22.72557279,-59.91394000
22.76557279,-56.38600000
22.80557279,-56.38600000
22.84557279,-54.62203000
22.88557279,-54.62203000
22.92557279,-54.62203000
22.96557279,-52.85195000
23.00557279,-52.85195000
23.04557279,-51.08798000
23.08557279,-49.32401000
23.12557279,-49.32401000
23.16557279,-49.32401000
23.20557279,-47.56004000
23.24557279,-47.56004000
23.28557279,-45.79607000
23.32557279,-45.79607000
23.36557279,-44.03210000
23.40557279,-42.26814000
23.44557279,-42.26814000
23.48557279,-40.50417000
23.52557279,-40.50417000
23.56557279,-38.74020000
23.60557279,-38.74020000
23.64557279,-36.97623000
23.68557279,-35.21225000
23.72557279,-35.21225000
23.76557279,-33.44828000
23.80557279,-33.44828000
23.84557279,-33.44828000
23.88557279,-31.68431000
23.92557279,-31.68431000
23.96557279,-28.15638000
24.00557279,-28.15638000
24.04557279,-26.39241000
24.08557279,-26.39241000
24.12557279,-26.39241000
24.16557279,-24.62233000
24.20557279,-24.62233000
24.24557279,-21.09439000
24.28557278,-21.09439000
24.32557278,-19.33042000
24.36557278,-19.33042000
24.40557278,-17.56645000
24.44557278,-17.56645000
24.48557278,-14.03851000
24.52557278,-17.56645000
24.56557278,-14.03851000
24.60557278,-12.27454000
24.64557278,-12.27454000
24.68557278,-10.51057000
24.72557278,-8.74660500
24.76557278,-6.98263500
24.80557278,-6.98263500
24.84557278,-6.98263500
24.88557278,-5.21866500
24.92557278,-5.21866500
24.96557278,-3.45469500
25.00557278,-3.45469500
25.04557278,0.07324442
25.08557278,0.07324442
25.12557278,1.83721400
25.16557278,1.83721400
25.20557278,3.60118400
25.24557278,3.60118400
25.28557278,7.12912400
25.32557278,7.12912400
25.36557278,7.12912400
25.40557278,8.89309300
25.44557278,8.89309300
25.48557278,8.89309300
25.52557278,10.65706000
25.56557278,14.18500000
25.60557278,14.18500000
25.64557278,15.94897000
25.68557278,15.94897000
25.72557278,15.94897000
25.76557278,17.71294000
25.80557278,19.47691000
25.84557278,21.24088000
25.88557278,23.00485000
25.92557277,23.00485000
25.96557277,23.00485000
26.00557277,24.76882000
26.04557277,24.76882000
26.08557277,26.53279000
26.12557277,28.29676000
26.16557277,28.29676000
26.20557277,30.06684000
26.24557277,30.06684000
26.28557277,30.06684000
26.32557277,31.83080000
26.36557277,35.35874000
26.40557277,35.35874000
26.44557277,35.35874000
26.48557277,37.12271000
26.52557277,37.12271000
26.56557277,38.88668000
26.60557277,38.88668000
26.64557277,40.65065000
26.68557277,42.41463000
26.72557277,44.17860000
26.76557277,44.17860000
26.80557277,44.17860000
26.84557277,44.17860000
26.88557277,45.94257000
26.92557277,47.70654000
26.96557277,49.47050000
27.00557277,49.47050000
27.04557277,51.23447000
27.08557277,51.23447000
27.12557277,51.23447000
27.16557277,52.99844000
27.20557277,52.99844000
27.24557277,54.76241000
27.28557277,56.52638000
27.32557277,56.52638000
27.36557277,58.29646000
27.40557277,58.29646000
27.44557277,58.29646000
27.48557277,60.06042000
27.52557277,61.82440000
27.56557276,63.58836000
27.60557276,63.58836000
27.64557276,65.35233000
27.68557276,65.35233000
27.72557276,65.35233000
27.76557276,67.11631000
27.80557276,67.11631000
27.84557276,68.88028000
27.88557276,70.64425000
27.92557276,70.64425000
27.96557276,72.40822000
28.00557276,72.40822000
28.04557276,72.40822000
28.08557276,74.17219000
28.12557276,74.17219000
28.16557276,74.17219000
28.20557276,75.93616000
28.24557276,77.70013000
28.28557276,77.70013000
28.32557276,79.46410000
28.36557276,79.46410000
28.40557276,79.46410000
28.44557276,81.22807000
28.48557276,79.46410000
28.52557276,81.22807000
28.56557276,82.99203000
28.60557276,82.99203000
28.64557276,84.75600000
28.68557276,84.75600000
28.72557276,84.75600000
28.76557276,86.52608000
28.80557276,86.52608000
28.84557276,86.52608000
28.88557276,88.29005000
28.92557276,88.29005000
28.96557276,88.29005000
29.00557276,90.05402000
29.04557276,90.05402000
29.08557276,91.81799000
29.12557276,91.81799000
29.16557276,91.81799000
29.20557275,93.58195000
29.24557275,93.58195000
29.28557275,93.58195000
29.32557275,93.58195000
29.36557275,95.34592000
29.40557275,95.34592000
29.44557275,95.34592000
29.48557275,95.34592000
29.52557275,97.10989000
29.56557275,97.10989000
29.60557275,98.87386000
29.64557275,98.87386000
29.68557275,98.87386000
29.72557275,98.87386000
29.76557275,98.87386000
29.80557275,100.63780000
29.84557275,100.63780000
29.88557275,100.63780000
29.92557275,100.63780000
29.96557275,100.63780000
30.00557275,102.40180000
30.04557275,102.40180000
30.08557275,104.16580000
30.12557275,104.16580000
30.16557275,104.16580000
30.20557275,105.92970000
30.24557275,105.92970000
30.28557275,105.92970000
30.32557275,105.92970000
30.36557275,105.92970000
30.40557275,105.92970000
30.44557275,105.92970000
30.48557275,105.92970000
30.52557275,107.69370000
30.56557275,107.69370000
30.60557275,107.69370000
30.64557275,107.69370000
30.68557275,107.69370000
30.72557275,107.69370000
30.76557275,107.69370000
30.80557275,107.69370000
30.84557274,107.69370000
30.88557274,107.69370000
30.92557274,107.69370000
30.96557274,109.45770000
31.00557274,107.69370000
31.04557274,107.69370000
31.08557274,109.45770000
31.12557274,107.69370000
31.16557274,111.22170000
31.20557274,109.45770000
31.24557274,107.69370000
31.28557274,109.45770000
31.32557274,109.45770000
31.36557274,109.45770000
31.40557274,109.45770000
31.44557274,109.45770000
31.48557274,109.45770000
31.52557274,109.45770000
31.56557274,109.45770000
31.60557274,109.45770000
31.64557274,109.45770000
31.68557274,109.45770000
31.72557274,109.45770000
31.76557274,109.45770000
31.80557274,109.45770000
31.84557274,109.45770000
31.88557274,107.69370000
31.92557274,109.45770000
31.96557274,109.45770000
32.00557274,107.69370000
32.04557274,107.69370000
32.08557274,109.45770000
32.12557274,107.69370000
32.16557274,107.69370000
32.20557274,107.69370000
32.24557274,107.69370000
32.28557274,107.69370000
32.32557274,107.69370000
32.36557274,107.69370000
32.40557274,107.69370000
32.44557274,107.69370000
32.48557273,105.92970000
32.52557273,105.92970000
32.56557273,105.92970000
32.60557273,105.92970000
32.64557273,105.92970000
32.68557273,104.16580000
32.72557273,105.92970000
32.76557273,104.16580000
32.80557273,102.40180000
32.84557273,102.40180000
32.88557273,102.40180000
32.92557273,102.40180000
32.96557273,102.40180000
33.00557273,100.63780000
33.04557273,100.63780000
33.08557273,100.63780000
33.12557273,100.63780000
33.16557273,100.63780000
33.20557273,98.87386000
33.24557273,98.87386000
33.28557273,98.87386000
33.32557273,98.87386000
33.36557273,98.87386000
33.40557273,97.10989000
33.44557273,95.34592000
33.48557273,95.34592000
33.52557273,95.34592000
33.56557273,95.34592000
33.60557273,95.34592000
33.64557273,93.58195000
33.68557273,93.58195000
33.72557273,93.58195000
33.76557273,91.81799000
33.80557273,91.81799000
33.84557273,91.81799000
33.88557273,91.81799000
33.92557273,90.05402000
33.96557273,90.05402000
34.00557273,88.29005000
34.04557273,88.29005000
34.08557273,88.29005000
34.12557272,86.52608000
34.16557272,86.52608000
34.20557272,86.52608000
34.24557272,84.75600000
34.28557272,84.75600000
34.32557272,82.99203000
34.36557272,82.99203000
34.40557272,81.22807000
34.44557272,81.22807000
34.48557272,79.46410000
34.52557272,79.46410000
34.56557272,79.46410000
34.60557272,79.46410000
34.64557272,77.70013000
34.68557272,77.70013000
34.72557272,75.93616000
34.76557272,75.93616000
34.80557272,74.17219000
34.84557272,74.17219000
34.88557272,72.40822000
34.92557272,72.40822000
34.96557272,72.40822000
35.00557272,70.64425000
35.04557272,70.64425000
35.08557272,70.64425000
35.12557272,68.88028000
35.16557272,67.11631000
35.20557272,65.35233000
35.24557272,65.35233000
35.28557272,63.58836000
35.32557272,65.35233000
35.36557272,63.58836000
35.40557272,63.58836000
35.44557272,61.82440000
35.48557272,60.06042000
35.52557272,58.29646000
35.56557272,58.29646000
35.60557272,58.29646000
35.64557272,56.52638000
35.68557272,56.52638000
35.72557272,54.76241000
35.76557272,52.99844000
35.80557271,52.99844000
35.84557271,51.23447000
35.88557271,51.23447000
35.92557271,51.23447000
35.96557271,49.47050000
36.00557271,47.70654000
36.04557271,45.94257000
36.08557271,45.94257000
36.12557271,44.17860000
36.16557271,44.17860000
36.20557271,42.41463000
36.24557271,42.41463000
36.28557271,42.41463000
36.32557271,40.65065000
36.36557271,38.88668000
36.40557271,38.88668000
36.44557271,37.12271000
36.48557271,35.35874000
36.52557271,37.12271000
36.56557271,35.35874000
36.60557271,31.83080000
36.64557271,31.83080000
36.68557271,31.83080000
36.72557271,30.06684000
36.76557271,30.06684000
36.80557271,28.29676000
36.84557271,28.29676000
36.88557271,26.53279000
36.92557271,24.76882000
36.96557271,24.76882000
37.00557271,23.00485000
37.04557271,21.24088000
37.08557271,21.24088000
37.12557271,19.47691000
37.16557271,19.47691000
37.20557271,15.94897000
37.24557271,15.94897000
37.28557271,15.94897000
37.32557271,14.18500000
37.36557271,14.18500000
37.40557271,12.42103000
37.44557270,10.65706000
37.48557270,8.89309300
37.52557270,8.89309300
37.56557270,8.89309300
37.60557270,7.12912400
37.64557270,7.12912400
37.68557270,5.36515400
37.72557270,3.60118400
37.76557270,1.83721400
37.80557270,1.83721400
37.84557270,1.83721400
37.88557270,0.07324442
37.92557270,0.07324442
37.96557270,-3.45469500
38.00557270,-5.21866500
38.04557270,-5.21866500
38.08557270,-5.21866500
38.12557270,-6.98263500
38.16557270,-6.98263500
38.20557270,-6.98263500
38.24557270,-10.51057000
38.28557270,-12.27454000
38.32557270,-12.27454000
38.36557270,-14.03851000
38.40557270,-14.03851000
38.44557270,-15.80248000
38.48557270,-15.80248000
38.52557270,-19.33042000
38.56557270,-19.33042000
38.60557270,-19.33042000
38.64557270,-21.09439000
38.68557270,-21.09439000
38.72557270,-22.85836000
38.76557270,-24.62233000
38.80557270,-24.62233000
38.84557270,-26.39241000
38.88557270,-26.39241000
38.92557270,-28.15638000
38.96557270,-28.15638000
39.00557270,-28.15638000
39.04557270,-31.68431000
39.08557269,-31.68431000
39.12557269,-33.44828000
39.16557269,-33.44828000
39.20557269,-33.44828000
39.24557269,-33.44828000
39.28557269,-36.97623000
39.32557269,-38.74020000
39.36557269,-35.21225000
39.40557269,-40.50417000
39.44557269,-40.50417000
39.48557269,-40.50417000
39.52557269,-42.26814000
39.56557269,-42.26814000
39.60557269,-45.79607000
39.64557269,-45.79607000
39.68557269,-47.56004000
39.72557269,-47.56004000
39.76557269,-47.56004000
39.80557269,-49.32401000
39.84557269,-49.32401000
39.88557269,-51.08798000
39.92557269,-51.08798000
39.96557269,-52.85195000
40.00557269,-54.62203000
40.04557269,-54.62203000
40.08557269,-54.62203000
40.12557269,-56.38600000
40.16557269,-56.38600000
40.20557269,-58.14997000
40.24557269,-59.91394000
40.28557269,-59.91394000
40.32557269,-61.67791000
40.36557269,-61.67791000
40.40557269,-61.67791000
40.44557269,-61.67791000
40.48557269,-63.44188000
40.52557269,-63.44188000
40.56557269,-65.20585000
40.60557269,-65.20585000
40.64557269,-68.73379000
40.68557269,-68.73379000
40.72557268,-68.73379000
40.76557268,-68.73379000
40.80557268,-68.73379000
40.84557268,-70.49776000
40.88557268,-70.49776000
40.92557268,-72.26173000
40.96557268,-74.02570000
41.00557268,-74.02570000
41.04557268,-75.78967000
41.08557268,-75.78967000
41.12557268,-75.78967000
41.16557268,-77.55363000
41.20557268,-77.55363000
41.24557268,-77.55363000
41.28557268,-77.55363000
41.32557268,-79.31760000
41.36557268,-79.31760000
41.40557268,-81.08157000
41.44557268,-82.85165000
41.48557268,-82.85165000
41.52557268,-82.85165000
41.56557268,-82.85165000
41.60557268,-82.85165000
41.64557268,-84.61562000
41.68557268,-84.61562000
41.72557268,-84.61562000
41.76557268,-86.37959000
41.80557268,-86.37959000
41.84557268,-88.14356000
41.88557268,-88.14356000
41.92557268,-88.14356000
41.96557268,-89.90753000
42.00557268,-89.90753000
42.04557268,-89.90753000
42.08557268,-89.90753000
42.12557268,-89.90753000
42.16557268,-89.90753000
42.20557268,-91.67150000
42.24557268,-91.67150000
42.28557268,-91.67150000
42.32557268,-93.43547000
42.36557267,-93.43547000
42.40557267,-93.43547000
42.44557267,-93.43547000
42.48557267,-95.19944000
42.52557267,-95.19944000
42.56557267,-95.19944000
42.60557267,-96.96341000
42.64557267,-95.19944000
42.68557267,-96.96341000
42.72557267,-96.96341000
42.76557267,-96.96341000
42.80557267,-96.96341000
42.84557267,-96.96341000
42.88557267,-96.96341000
42.92557267,-98.72738000
42.96557267,-98.72738000
43.00557267,-98.72738000
43.04557267,-98.72738000
43.08557267,-98.72738000
43.12557267,-98.72738000
43.16557267,-98.72738000
43.20557267,-98.72738000
43.24557267,-100.49130000
43.28557267,-100.49130000
43.32557267,-102.25530000
43.36557267,-102.25530000
43.40557267,-102.25530000
43.44557267,-100.49130000
43.48557267,-102.25530000
43.52557267,-102.25530000
43.56557267,-100.49130000
43.60557267,-102.25530000
43.64557267,-102.25530000
43.68557267,-102.25530000
43.72557267,-102.25530000
43.76557267,-102.25530000
43.80557267,-102.25530000
43.84557267,-102.25530000
43.88557267,-102.25530000
43.92557267,-102.25530000
43.96557267,-104.01930000
44.00557266,-102.25530000
44.04557266,-102.25530000
44.08557266,-102.25530000
44.12557266,-102.25530000
44.16557266,-102.25530000
44.20557266,-102.25530000
44.24557266,-102.25530000
44.28557266,-102.25530000
44.32557266,-102.25530000
44.36557266,-102.25530000
44.40557266,-102.25530000
44.44557266,-102.25530000
44.48557266,-102.25530000
44.52557266,-102.25530000
44.56557266,-102.25530000
44.60557266,-100.49130000
44.64557266,-100.49130000
44.68557266,-100.49130000
44.72557266,-100.49130000
44.76557266,-98.72738000
44.80557266,-98.72738000
44.84557266,-98.72738000
44.88557266,-98.72738000
44.92557266,-98.72738000
44.96557266,-98.72738000
45.00557266,-96.96341000
45.04557266,-96.96341000
45.08557266,-96.96341000
45.12557266,-96.96341000
45.16557266,-96.96341000
45.20557266,-96.96341000
45.24557266,-96.96341000
45.28557266,-96.96341000
45.32557266,-95.19944000
45.36557266,-96.96341000
45.40557266,-95.19944000
45.44557266,-95.19944000
45.48557266,-93.43547000
45.52557266,-95.19944000
45.56557266,-93.43547000
45.60557266,-91.67150000
45.64557265,-91.67150000
45.68557265,-91.67150000
45.72557265,-91.67150000
45.76557265,-91.67150000
45.80557265,-91.67150000
45.84557265,-91.67150000
45.88557265,-89.90753000
45.92557265,-89.90753000
45.96557265,-89.90753000
46.00557265,-88.14356000
46.04557265,-88.14356000
46.08557265,-88.14356000
46.12557265,-84.61562000
46.16557265,-88.14356000
46.20557265,-84.61562000
46.24557265,-82.85165000
46.28557265,-84.61562000
46.32557265,-84.61562000
46.36557265,-82.85165000
46.40557265,-82.85165000
46.44557265,-82.85165000
46.48557265,-81.08157000
46.52557265,-81.08157000
46.56557265,-79.31760000
46.60557265,-79.31760000
46.64557265,-77.55363000
46.68557265,-77.55363000
46.72557265,-77.55363000
46.76557265,-75.78967000
46.80557265,-75.78967000
46.84557265,-75.78967000
46.88557265,-75.78967000
46.92557265,-74.02570000
46.96557265,-74.02570000
47.00557265,-74.02570000
47.04557265,-72.26173000
47.08557265,-70.49776000
47.12557265,-70.49776000
47.16557265,-68.73379000
47.20557265,-68.73379000
47.24557265,-68.73379000
47.28557264,-68.73379000
47.32557264,-65.20585000
47.36557264,-65.20585000
47.40557264,-65.20585000
47.44557264,-65.20585000
47.48557264,-61.67791000
47.52557264,-61.67791000
47.56557264,-61.67791000
47.60557264,-61.67791000
47.64557264,-59.91394000
47.68557264,-58.14997000
47.72557264,-58.14997000
47.76557264,-56.38600000
47.80557264,-56.38600000
47.84557264,-54.62203000
47.88557264,-54.62203000
47.92557264,-54.62203000
47.96557264,-52.85195000
48.00557264,-52.85195000
48.04557264,-51.08798000
48.08557264,-49.32401000
48.12557264,-49.32401000
48.16557264,-47.56004000
48.20557264,-47.56004000
48.24557264,-47.56004000
48.28557264,-45.79607000
48.32557264,-45.79607000
48.36557264,-42.26814000
48.40557264,-42.26814000
48.44557264,-42.26814000
48.48557264,-40.50417000
48.52557264,-40.50417000
48.56557264,-40.50417000
48.60557264,-36.97623000
48.64557264,-36.97623000
48.68557264,-35.21225000
48.72557264,-35.21225000
48.76557264,-33.44828000
48.80557264,-33.44828000
48.84557264,-31.68431000
48.88557264,-31.68431000
48.92557264,-29.92035000
48.96557263,-28.15638000
49.00557263,-28.15638000
49.04557263,-28.15638000
49.08557263,-26.39241000
49.12557263,-26.39241000
49.16557263,-24.62233000
49.20557263,-22.85836000
49.24557263,-22.85836000
49.28557263,-21.09439000
49.32557263,-19.33042000
49.36557263,-19.33042000
49.40557263,-19.33042000
49.44557263,-17.56645000
49.48557263,-17.56645000
49.52557263,-14.03851000
49.56557263,-14.03851000
49.60557263,-12.27454000
49.64557263,-12.27454000
49.68557263,-10.51057000
49.72557263,-8.74660500
49.76557263,-6.98263500
49.80557263,-6.98263500
49.84557263,-5.21866500
49.88557263,-5.21866500
49.92557263,-3.45469500
49.96557263,-3.45469500
50.00557263,-1.69072500
50.04557263,0.07324442
50.08557263,0.07324442
50.12557263,1.83721400
50.16557263,1.83721400
50.20557263,3.60118400
50.24557263,3.60118400
50.28557263,5.36515400
50.32557263,7.12912400
50.36557263,7.12912400
50.40557263,8.89309300
50.44557263,8.89309300
50.48557263,10.65706000
50.52557263,10.65706000
50.56557263,14.18500000
50.60557262,14.18500000
50.64557262,15.94897000
50.68557262,15.94897000
50.72557262,15.94897000
50.76557262,17.71294000
50.80557262,19.47691000
50.84557262,21.24088000
50.88557262,21.24088000
50.92557262,23.00485000
50.96557262,23.00485000
51.00557262,24.76882000
51.04557262,24.76882000
51.08557262,28.29676000
51.12557262,28.29676000
51.16557262,30.06684000
51.20557262,30.06684000
51.24557262,31.83080000
51.28557262,31.83080000
51.32557262,33.59477000
51.36557262,35.35874000
51.40557262,33.59477000
51.44557262,37.12271000
51.48557262,37.12271000
51.52557262,37.12271000
51.56557262,38.88668000
51.60557262,38.88668000
51.64557262,40.65065000
51.68557262,42.41463000
51.72557262,42.41463000
51.76557262,44.17860000
51.80557262,44.17860000
51.84557262,44.17860000
51.88557262,47.70654000
51.92557262,47.70654000
51.96557262,49.47050000
52.00557262,49.47050000
52.04557262,51.23447000
52.08557262,51.23447000
52.12557262,52.99844000
52.16557262,52.99844000
52.20557262,54.76241000
52.24557261,56.52638000
52.28557261,56.52638000
52.32557261,58.29646000
52.36557261,58.29646000
52.40557261,58.29646000
52.44557261,60.06042000
52.48557261,60.06042000
52.52557261,61.82440000
52.56557261,63.58836000
52.60557261,63.58836000
52.64557261,65.35233000
52.68557261,65.35233000
52.72557261,65.35233000
52.76557261,67.11631000
52.80557261,67.11631000
52.84557261,68.88028000
52.88557261,70.64425000
52.92557261,70.64425000
52.96557261,72.40822000
53.00557261,72.40822000
53.04557261,72.40822000
53.08557261,72.40822000
53.12557261,74.17219000
53.16557261,74.17219000
53.20557261,75.93616000
53.24557261,77.70013000
53.28557261,77.70013000
53.32557261,77.70013000
53.36557261,79.46410000
53.40557261,79.46410000
53.44557261,79.46410000
53.48557261,81.22807000
53.52557261,81.22807000
53.56557261,81.22807000
53.60557261,82.99203000
53.64557261,84.75600000
53.68557261,84.75600000
53.72557261,86.52608000
53.76557261,86.52608000
53.80557261,86.52608000
53.84557261,86.52608000
53.88557260,86.52608000
53.92557260,88.29005000
53.96557260,90.05402000
54.00557260,90.05402000
54.04557260,91.81799000
54.08557260,91.81799000
54.12557260,90.05402000
54.16557260,93.58195000
54.20557260,93.58195000
54.24557260,93.58195000
54.28557260,93.58195000
54.32557260,93.58195000
54.36557260,95.34592000
54.40557260,95.34592000
54.44557260,95.34592000
54.48557260,95.34592000
54.52557260,97.10989000
54.56557260,97.10989000
54.60557260,98.87386000
54.64557260,98.87386000
54.68557260,98.87386000
54.72557260,100.63780000
54.76557260,100.63780000
54.80557260,100.63780000
54.84557260,100.63780000
54.88557260,100.63780000
54.92557260,100.63780000
54.96557260,102.40180000
55.00557260,104.16580000
55.04557260,102.40180000
55.08557260,102.40180000
55.12557260,102.40180000
55.16557260,104.16580000
55.20557260,104.16580000
55.24557260,105.92970000
55.28557260,105.92970000
55.32557260,105.92970000
55.36557260,105.92970000
55.40557260,107.69370000
55.44557260,105.92970000
55.48557260,107.69370000
55.52557259,107.69370000
55.56557259,107.69370000
55.60557259,107.69370000
55.64557259,107.69370000
55.68557259,107.69370000
55.72557259,107.69370000
55.76557259,107.69370000
55.80557259,109.45770000
55.84557259,107.69370000
55.88557259,109.45770000
55.92557259,107.69370000
55.96557259,109.45770000
56.00557259,109.45770000
56.04557259,109.45770000
56.08557259,107.69370000
56.12557259,107.69370000
56.16557259,109.45770000
56.20557259,109.45770000
56.24557259,109.45770000
56.28557259,109.45770000
56.32557259,109.45770000
56.36557259,109.45770000
56.40557259,109.45770000
56.44557259,109.45770000
56.48557259,109.45770000
56.52557259,109.45770000
56.56557259,109.45770000
56.60557259,109.45770000
56.64557259,109.45770000
56.68557259,109.45770000
56.72557259,109.45770000
56.76557259,109.45770000
56.80557259,109.45770000
56.84557259,109.45770000
56.88557259,109.45770000
56.92557259,107.69370000
56.96557259,107.69370000
57.00557259,107.69370000
57.04557259,107.69370000
57.08557259,107.69370000
57.12557259,107.69370000
57.16557258,107.69370000
57.20557258,107.69370000
57.24557258,107.69370000
57.28557258,107.69370000
57.32557258,107.69370000
57.36557258,107.69370000
57.40557258,107.69370000
57.44557258,107.69370000
57.48557258,105.92970000
57.52557258,105.92970000
57.56557258,105.92970000
57.60557258,105.92970000
57.64557258,105.92970000
57.68557258,105.92970000
57.72557258,104.16580000
57.76557258,104.16580000
57.80557258,104.16580000
57.84557258,104.16580000
57.88557258,104.16580000
57.92557258,102.40180000
57.96557258,102.40180000
58.00557258,100.63780000
58.04557258,100.63780000
58.08557258,100.63780000
58.12557258,100.63780000
58.16557258,100.63780000
58.20557258,100.63780000
58.24557258,98.87386000
58.28557258,100.63780000
58.32557258,98.87386000
58.36557258,95.34592000
58.40557258,97.10989000
58.44557258,97.10989000
58.48557258,95.34592000
58.52557258,95.34592000
58.56557258,93.58195000
58.60557258,93.58195000
58.64557258,93.58195000
58.68557258,93.58195000
58.72557258,93.58195000
58.76557258,93.58195000
58.80557257,91.81799000
58.84557257,91.81799000
58.88557257,91.81799000
58.92557257,90.05402000
58.96557257,90.05402000
59.00557257,88.29005000
59.04557257,88.29005000
59.08557257,86.52608000
59.12557257,86.52608000
59.16557257,86.52608000
59.20557257,86.52608000
59.24557257,84.75600000
59.28557257,84.75600000
59.32557257,84.75600000
59.36557257,82.99203000
59.40557257,81.22807000
59.44557257,81.22807000
59.48557257,79.46410000
59.52557257,79.46410000
59.56557257,79.46410000
59.60557257,79.46410000
59.64557257,77.70013000
59.68557257,77.70013000
59.72557257,77.70013000
59.76557257,75.93616000
59.80557257,74.17219000
59.84557257,72.40822000
59.88557257,72.40822000
59.92557257,72.40822000
59.96557257,72.40822000
60.00557257,70.64425000
60.04557257,70.64425000
60.08557257,68.88028000
60.12557257,68.88028000
60.16557257,67.11631000
60.20557257,65.35233000
60.24557257,65.35233000
60.28557257,65.35233000
60.32557257,63.58836000
60.36557257,63.58836000
60.40557257,63.58836000
60.44557257,61.82440000
60.48557256,60.06042000
60.52557256,60.06042000
60.56557256,58.29646000
60.60557256,58.29646000
60.64557256,56.52638000
60.68557256,56.52638000
60.72557256,54.76241000
60.76557256,54.76241000
60.80557256,52.99844000
60.84557256,51.23447000
60.88557256,51.23447000
60.92557256,51.23447000
60.96557256,49.47050000
61.00557256,47.70654000
61.04557256,47.70654000
61.08557256,45.94257000
61.12557256,45.94257000
61.16557256,44.17860000
61.20557256,44.17860000
61.24557256,42.41463000
61.28557256,42.41463000
61.32557256,40.65065000
61.36557256,38.88668000
61.40557256,38.88668000
61.44557256,37.12271000
61.48557256,37.12271000
61.52557256,35.35874000
61.56557256,35.35874000
61.60557256,33.59477000
61.64557256,31.83080000
61.68557256,31.83080000
61.72557256,30.06684000
61.76557256,30.06684000
61.80557256,28.29676000
61.84557256,28.29676000
61.88557256,26.53279000
61.92557256,24.76882000
61.96557256,23.00485000
62.00557256,23.00485000
62.04557256,23.00485000
62.08557256,21.24088000
62.12557255,19.47691000
62.16557255,17.71294000
62.20557255,17.71294000
62.24557255,17.71294000
62.28557255,15.94897000
62.32557255,15.94897000
62.36557255,14.18500000
62.40557255,12.42103000
62.44557255,10.65706000
62.48557255,8.89309300
62.52557255,8.89309300
62.56557255,8.89309300
62.60557255,7.12912400
62.64557255,5.36515400
62.68557255,5.36515400
62.72557255,3.60118400
62.76557255,1.83721400
62.80557255,1.83721400
62.84557255,0.07324442
62.88557255,1.83721400
62.92557255,-1.69072500
62.96557255,-3.45469500
63.00557255,-3.45469500
63.04557255,-5.21866500
63.08557255,-5.21866500
63.12557255,-6.98263500
63.16557255,-6.98263500
63.20557255,-8.74660500
63.24557255,-10.51057000
63.28557255,-12.27454000
63.32557255,-12.27454000
63.36557255,-12.27454000
63.40557255,-12.27454000
63.44557255,-15.80248000
63.48557255,-17.56645000
63.52557255,-17.56645000
63.56557255,-19.33042000
63.60557255,-19.33042000
63.64557255,-19.33042000
63.68557255,-21.09439000
63.72557255,-21.09439000
63.76557254,-24.62233000
63.80557254,-26.39241000
63.84557254,-26.39241000
63.88557254,-26.39241000
63.92557254,-28.15638000
63.96557254,-28.15638000
64.00557254,-29.92035000
64.04557254,-31.68431000
64.08557254,-31.68431000
64.12557254,-33.44828000
64.16557254,-33.44828000
64.20557254,-35.21225000
64.24557254,-35.21225000
64.28557254,-35.21225000
64.32557254,-36.97623000
64.36557254,-38.74020000
64.40557254,-40.50417000
64.44557254,-40.50417000
64.48557254,-40.50417000
64.52557254,-42.26814000
64.56557254,-42.26814000
64.60557254,-45.79607000
64.64557254,-45.79607000
64.68557254,-47.56004000
64.72557254,-47.56004000
64.76557254,-47.56004000
64.80557254,-49.32401000
64.84557254,-49.32401000
64.88557254,-51.08798000
64.92557254,-51.08798000
64.96557254,-52.85195000
65.00557254,-54.62203000
65.04557254,-54.62203000
65.08557254,-54.62203000
65.12557254,-56.38600000
65.16557254,-56.38600000
65.20557254,-58.14997000
65.24557254,-59.91394000
65.28557254,-59.91394000
65.32557254,-61.67791000
65.36557254,-61.67791000
65.40557253,-61.67791000
65.44557253,-63.44188000
65.48557253,-63.44188000
65.52557253,-65.20585000
65.56557253,-65.20585000
65.60557253,-66.96982000
65.64557253,-66.96982000
65.68557253,-68.73379000
65.72557253,-68.73379000
65.76557253,-68.73379000
65.80557253,-70.49776000
65.84557253,-70.49776000
65.88557253,-72.26173000
65.92557253,-72.26173000
65.96557253,-74.02570000
66.00557253,-74.02570000
66.04557253,-75.78967000
66.08557253,-75.78967000
66.12557253,-74.02570000
66.16557253,-77.55363000
66.20557253,-77.55363000
66.24557253,-77.55363000
66.28557253,-77.55363000
66.32557253,-79.31760000
66.36557253,-81.08157000
66.40557253,-81.08157000
66.44557253,-81.08157000
66.48557253,-82.85165000
66.52557253,-82.85165000
66.56557253,-82.85165000
66.60557253,-82.85165000
66.64557253,-84.61562000
66.68557253,-84.61562000
66.72557253,-84.61562000
66.76557253,-86.37959000
66.80557253,-86.37959000
66.84557253,-88.14356000
66.88557253,-88.14356000
66.92557253,-88.14356000
66.96557253,-88.14356000
67.00557253,-89.90753000
67.04557252,-89.90753000
67.08557252,-89.90753000
67.12557252,-89.90753000
67.16557252,-89.90753000
67.20557252,-91.67150000
67.24557252,-91.67150000
67.28557252,-91.67150000
67.32557252,-91.67150000
67.36557252,-91.67150000
67.40557252,-93.43547000
67.44557252,-93.43547000
67.48557252,-93.43547000
67.52557252,-95.19944000
67.56557252,-95.19944000
67.60557252,-95.19944000
67.64557252,-95.19944000
67.68557252,-96.96341000
67.72557252,-96.96341000
67.76557252,-96.96341000
67.80557252,-96.96341000
67.84557252,-96.96341000
67.88557252,-96.96341000
67.92557252,-96.96341000
67.96557252,-98.72738000
68.00557252,-98.72738000
68.04557252,-98.72738000
68.08557252,-98.72738000
68.12557252,-98.72738000
68.16557252,-98.72738000
68.20557252,-100.49130000
68.24557252,-98.72738000
68.28557252,-100.49130000
68.32557252,-100.49130000
68.36557252,-102.25530000
68.40557252,-102.25530000
68.44557252,-102.25530000
68.48557252,-102.25530000
68.52557252,-102.25530000
68.56557252,-100.49130000
68.60557252,-102.25530000
68.64557252,-102.25530000
68.68557251,-102.25530000
68.72557251,-102.25530000
68.76557251,-102.25530000
68.80557251,-102.25530000
68.84557251,-102.25530000
68.88557251,-102.25530000
68.92557251,-102.25530000
68.96557251,-102.25530000
69.00557251,-102.25530000
69.04557251,-98.72738000
69.08557251,-104.01930000
69.12557251,-102.25530000
69.16557251,-102.25530000
69.20557251,-102.25530000
69.24557251,-100.49130000
69.28557251,-102.25530000
69.32557251,-102.25530000
69.36557251,-102.25530000
69.40557251,-100.49130000
69.44557251,-102.25530000
69.48557251,-102.25530000
69.52557251,-102.25530000
69.56557251,-100.49130000
69.60557251,-98.72738000
69.64557251,-100.49130000
69.68557251,-98.72738000
69.72557251,-98.72738000
69.76557251,-98.72738000
69.80557251,-98.72738000
69.84557251,-98.72738000
69.88557251,-98.72738000
69.92557251,-98.72738000
69.96557251,-96.96341000
70.00557251,-96.96341000
70.04557251,-96.96341000
70.08557251,-96.96341000
70.12557251,-96.96341000
70.16557251,-96.96341000
70.20557251,-96.96341000
70.24557251,-96.96341000
70.28557251,-96.96341000
70.32557250,-96.96341000
70.36557250,-95.19944000
70.40557250,-95.19944000
70.44557250,-95.19944000
70.48557250,-95.19944000
70.52557250,-93.43547000
70.56557250,-93.43547000
70.60557250,-91.67150000
70.64557250,-93.43547000
70.68557250,-91.67150000
70.72557250,-91.67150000
70.76557250,-91.67150000
70.80557250,-89.90753000
70.84557250,-89.90753000
70.88557250,-89.90753000
70.92557250,-89.90753000
70.96557250,-89.90753000
71.00557250,-88.14356000
71.04557250,-88.14356000
71.08557250,-88.14356000
71.12557250,-88.14356000
71.16557250,-86.37959000
71.20557250,-84.61562000
71.24557250,-84.61562000
71.28557250,-84.61562000
71.32557250,-84.61562000
71.36557250,-82.85165000
71.40557250,-82.85165000
71.44557250,-82.85165000
71.48557250,-82.85165000
71.52557250,-82.85165000
71.56557250,-81.08157000
71.60557250,-79.31760000
71.64557250,-77.55363000
71.68557250,-77.55363000
71.72557250,-77.55363000
71.76557250,-75.78967000
71.80557250,-75.78967000
71.84557250,-75.78967000
71.88557250,-75.78967000
71.92557250,-74.02570000
71.96557250,-74.02570000
72.00557249,-72.26173000
72.04557249,-72.26173000
72.08557249,-70.49776000
72.12557249,-70.49776000
72.16557249,-68.73379000
72.20557249,-68.73379000
72.24557249,-68.73379000
72.28557249,-68.73379000
72.32557249,-66.96982000
72.36557249,-66.96982000
72.40557249,-63.44188000
72.44557249,-63.44188000
72.48557249,-63.44188000
72.52557249,-61.67791000
72.56557249,-61.67791000
72.60557249,-61.67791000
72.64557249,-61.67791000
72.68557249,-59.91394000
72.72557249,-58.14997000
72.76557249,-58.14997000
72.80557249,-56.38600000
72.84557249,-56.38600000
72.88557249,-54.62203000
72.92557249,-54.62203000
72.96557249,-52.85195000
73.00557249,-52.85195000
73.04557249,-51.08798000
73.08557249,-49.32401000
73.12557249,-49.32401000
73.16557249,-47.56004000
73.20557249,-47.56004000
73.24557249,-47.56004000
73.28557249,-45.79607000
73.32557249,-45.79607000
73.36557249,-44.03210000
73.40557249,-42.26814000
73.44557249,-40.50417000
73.48557249,-40.50417000
73.52557249,-40.50417000
73.56557249,-38.74020000
73.60557249,-38.74020000
73.64557248,-35.21225000
73.68557248,-35.21225000
73.72557248,-35.21225000
73.76557248,-33.44828000
73.80557248,-33.44828000
73.84557248,-31.68431000
73.88557248,-31.68431000
73.92557248,-31.68431000
73.96557248,-28.15638000
74.00557248,-28.15638000
74.04557248,-26.39241000
74.08557248,-26.39241000
74.12557248,-24.62233000
74.16557248,-24.62233000
74.20557248,-22.85836000
74.24557248,-22.85836000
74.28557248,-21.09439000
74.32557248,-19.33042000
74.36557248,-19.33042000
74.40557248,-19.33042000
74.44557248,-17.56645000
74.48557248,-14.03851000
74.52557248,-14.03851000
74.56557248,-14.03851000
74.60557248,-12.27454000
74.64557248,-12.27454000
74.68557248,-10.51057000
74.72557248,-8.74660500
74.76557248,-6.98263500
74.80557248,-6.98263500
74.84557248,-5.21866500
74.88557248,-5.21866500
74.92557248,-5.21866500
74.96557248,-3.45469500
75.00557248,-1.69072500
75.04557248,0.07324442
75.08557248,0.07324442
75.12557248,1.83721400
75.16557248,1.83721400
75.20557248,3.60118400
75.24557248,3.60118400
75.28557247,5.36515400
75.32557247,7.12912400
75.36557247,7.12912400
75.40557247,8.89309300
75.44557247,8.89309300
75.48557247,10.65706000
75.52557247,14.18500000
75.56557247,14.18500000
75.60557247,14.18500000
75.64557247,15.94897000
75.68557247,15.94897000
75.72557247,15.94897000
75.76557247,17.71294000
75.80557247,17.71294000
75.84557247,23.00485000
75.88557247,23.00485000
75.92557247,23.00485000
75.96557247,23.00485000
76.00557247,24.76882000
76.04557247,26.53279000
76.08557247,28.29676000
76.12557247,28.29676000
76.16557247,28.29676000
76.20557247,30.06684000
76.24557247,31.83080000
76.28557247,31.83080000
76.32557247,33.59477000
76.36557247,33.59477000
76.40557247,35.35874000
76.44557247,37.12271000
76.48557247,37.12271000
76.52557247,37.12271000
76.56557247,38.88668000
76.60557247,40.65065000
76.64557247,40.65065000
76.68557247,42.41463000
76.72557247,44.17860000
76.76557247,44.17860000
76.80557247,44.17860000
76.84557247,45.94257000
76.88557247,45.94257000
76.92557246,47.70654000
76.96557246,49.47050000
77.00557246,51.23447000
77.04557246,51.23447000
77.08557246,51.23447000
77.12557246,52.99844000
77.16557246,52.99844000
77.20557246,52.99844000
77.24557246,56.52638000
77.28557246,56.52638000
77.32557246,58.29646000
77.36557246,58.29646000
77.40557246,58.29646000
77.44557246,60.06042000
77.48557246,60.06042000
77.52557246,63.58836000
77.56557246,63.58836000
77.60557246,63.58836000
77.64557246,65.35233000
77.68557246,65.35233000
77.72557246,65.35233000
77.76557246,67.11631000
77.80557246,67.11631000
77.84557246,68.88028000
77.88557246,70.64425000
77.92557246,70.64425000
77.96557246,72.40822000
78.00557246,72.40822000
78.04557246,72.40822000
78.08557246,72.40822000
78.12557246,74.17219000
78.16557246,75.93616000
78.20557246,75.93616000
78.24557246,77.70013000
78.28557246,77.70013000
78.32557246,79.46410000
78.36557246,79.46410000
78.40557246,79.46410000
78.44557246,79.46410000
78.48557246,81.22807000
78.52557246,81.22807000
78.56557245,82.99203000
78.60557245,82.99203000
78.64557245,84.75600000
78.68557245,84.75600000
78.72557245,86.52608000
78.76557245,86.52608000
78.80557245,86.52608000
78.84557245,86.52608000
78.88557245,88.29005000
78.92557245,88.29005000
78.96557245,90.05402000
79.00557245,90.05402000
79.04557245,91.81799000
79.08557245,91.81799000
79.12557245,91.81799000
79.16557245,91.81799000
79.20557245,93.58195000
79.24557245,93.58195000
79.28557245,93.58195000
79.32557245,93.58195000
79.36557245,95.34592000
79.40557245,95.34592000
79.44557245,95.34592000
79.48557245,95.34592000
79.52557245,97.10989000
79.56557245,98.87386000
79.60557245,98.87386000
79.64557245,98.87386000
79.68557245,98.87386000
79.72557245,100.63780000
79.76557245,100.63780000
79.80557245,100.63780000
79.84557245,100.63780000
79.88557245,100.63780000
79.92557245,100.63780000
79.96557245,100.63780000
80.00557245,102.40180000
80.04557245,102.40180000
80.08557245,104.16580000
80.12557245,104.16580000
80.16557245,105.92970000
80.20557244,104.16580000
80.24557244,105.92970000
80.28557244,105.92970000
80.32557244,105.92970000
80.36557244,105.92970000
80.40557244,105.92970000
80.44557244,105.92970000
80.48557244,105.92970000
80.52557244,107.69370000
80.56557244,107.69370000
80.60557244,107.69370000
80.64557244,107.69370000
80.68557244,107.69370000
80.72557244,107.69370000
80.76557244,107.69370000
80.80557244,107.69370000
80.84557244,107.69370000
80.88557244,109.45770000
80.92557244,107.69370000
80.96557244,107.69370000
81.00557244,109.45770000
81.04557244,109.45770000
81.08557244,109.45770000
81.12557244,109.45770000
81.16557244,109.45770000
81.20557244,109.45770000
81.24557244,109.45770000
81.28557244,109.45770000
81.32557244,109.45770000
81.36557244,109.45770000
81.40557244,109.45770000
81.44557244,109.45770000
81.48557244,109.45770000
81.52557244,109.45770000
81.56557244,109.45770000
81.60557244,109.45770000
81.64557244,109.45770000
81.68557244,109.45770000
81.72557244,109.45770000
81.76557244,109.45770000
81.80557244,109.45770000
81.84557243,109.45770000
81.88557243,109.45770000
81.92557243,109.45770000
81.96557243,109.45770000
82.00557243,107.69370000
82.04557243,107.69370000
82.08557243,107.69370000
82.12557243,107.69370000
82.16557243,107.69370000
82.20557243,107.69370000
82.24557243,107.69370000
82.28557243,107.69370000
82.32557243,107.69370000
82.36557243,107.69370000
82.40557243,107.69370000
82.44557243,107.69370000
82.48557243,105.92970000
82.52557243,105.92970000
82.56557243,105.92970000
82.60557243,105.92970000
82.64557243,105.92970000
82.68557243,105.92970000
82.72557243,105.92970000
82.76557243,104.16580000
82.80557243,104.16580000
82.84557243,104.16580000
82.88557243,104.16580000
82.92557243,102.40180000
82.96557243,102.40180000
83.00557243,102.40180000
83.04557243,100.63780000
83.08557243,100.63780000
83.12557243,100.63780000
83.16557243,100.63780000
83.20557243,100.63780000
83.24557243,100.63780000
83.28557243,100.63780000
83.32557243,98.87386000
83.36557243,97.10989000
83.40557243,97.10989000
83.44557243,97.10989000
83.48557242,95.34592000
83.52557242,95.34592000
83.56557242,95.34592000
83.60557242,93.58195000
83.64557242,93.58195000
83.68557242,93.58195000
83.72557242,95.34592000
83.76557242,91.81799000
83.80557242,91.81799000
83.84557242,93.58195000
83.88557242,91.81799000
83.92557242,90.05402000
83.96557242,88.29005000
84.00557242,88.29005000
84.04557242,88.29005000
84.08557242,88.29005000
84.12557242,86.52608000
84.16557242,86.52608000
84.20557242,86.52608000
84.24557242,84.75600000
84.28557242,84.75600000
84.32557242,84.75600000
84.36557242,82.99203000
84.40557242,81.22807000
84.44557242,81.22807000
84.48557242,79.46410000
84.52557242,81.22807000
84.56557242,79.46410000
84.60557242,79.46410000
84.64557242,77.70013000
84.68557242,77.70013000
84.72557242,75.93616000
84.76557242,75.93616000
84.80557242,75.93616000
84.84557242,74.17219000
84.88557242,72.40822000
84.92557242,72.40822000
84.96557242,72.40822000
85.00557242,70.64425000
85.04557242,70.64425000
85.08557242,70.64425000
85.12557242,68.88028000
85.16557241,67.11631000
85.20557241,65.35233000
85.24557241,65.35233000
85.28557241,65.35233000
85.32557241,63.58836000
85.36557241,63.58836000
85.40557241,63.58836000
85.44557241,61.82440000
85.48557241,60.06042000
85.52557241,58.29646000
85.56557241,58.29646000
85.60557241,58.29646000
85.64557241,56.52638000
85.68557241,56.52638000
85.72557241,54.76241000
85.76557241,52.99844000
85.80557241,52.99844000
85.84557241,51.23447000
85.88557241,51.23447000
85.92557241,51.23447000
85.96557241,49.47050000
86.00557241,49.47050000
86.04557241,47.70654000
86.08557241,45.94257000
86.12557241,44.17860000
86.16557241,44.17860000
86.20557241,44.17860000
86.24557241,42.41463000
86.28557241,40.65065000
86.32557241,38.88668000
86.36557241,38.88668000
86.40557241,37.12271000
86.44557241,37.12271000
86.48557241,37.12271000
86.52557241,35.35874000
86.56557241,33.59477000
86.60557241,33.59477000
86.64557241,31.83080000
86.68557241,31.83080000
86.72557241,30.06684000
86.76557241,30.06684000
86.80557240,28.29676000
86.84557240,28.29676000
86.88557240,24.76882000
86.92557240,24.76882000
86.96557240,23.00485000
87.00557240,23.00485000
87.04557240,23.00485000
87.08557240,21.24088000
87.12557240,21.24088000
87.16557240,17.71294000
87.20557240,15.94897000
87.24557240,15.94897000
87.28557240,15.94897000
87.32557240,15.94897000
87.36557240,14.18500000
87.40557240,12.42103000
87.44557240,10.65706000
87.48557240,8.89309300
87.52557240,8.89309300
87.56557240,8.89309300
87.60557240,8.89309300
87.64557240,7.12912400
87.68557240,5.36515400
87.72557240,3.60118400
87.76557240,1.83721400
87.80557240,1.83721400
87.84557240,1.83721400
87.88557240,0.07324442
87.92557240,0.07324442
87.96557240,-3.45469500
88.00557240,-3.45469500
88.04557240,-5.21866500
88.08557240,-5.21866500
88.12557240,-5.21866500
88.16557240,-6.98263500
88.20557240,-8.74660500
88.24557240,-8.74660500
88.28557240,-10.51057000
88.32557240,-12.27454000
88.36557240,-12.27454000
88.40557240,-14.03851000
88.44557239,-14.03851000
88.48557239,-15.80248000
88.52557239,-17.56645000
88.56557239,-19.33042000
88.60557239,-19.33042000
88.64557239,-21.09439000
88.68557239,-21.09439000
88.72557239,-22.85836000
88.76557239,-24.62233000
88.80557239,-24.62233000
88.84557239,-26.39241000
88.88557239,-26.39241000
88.92557239,-26.39241000
88.96557239,-28.15638000
89.00557239,-29.92035000
89.04557239,-31.68431000
89.08557239,-31.68431000
89.12557239,-33.44828000
89.16557239,-33.44828000
89.20557239,-33.44828000
89.24557239,-35.21225000
89.28557239,-36.97623000
89.32557239,-36.97623000
89.36557239,-38.74020000
89.40557239,-38.74020000
89.44557239,-40.50417000
89.48557239,-40.50417000
89.52557239,-42.26814000
89.56557239,-42.26814000
89.60557239,-45.79607000
89.64557239,-45.79607000
89.68557239,-45.79607000
89.72557239,-47.56004000
89.76557239,-47.56004000
89.80557239,-49.32401000
89.84557239,-49.32401000
89.88557239,-51.08798000
89.92557239,-52.85195000
89.96557239,-54.62203000
90.00557239,-54.62203000
90.04557239,-54.62203000
90.08557238,-54.62203000
90.12557238,-56.38600000
90.16557238,-56.38600000
90.20557238,-56.38600000
90.24557238,-59.91394000
90.28557238,-59.91394000
90.32557238,-59.91394000
90.36557238,-61.67791000
90.40557238,-61.67791000
90.44557238,-63.44188000
90.48557238,-63.44188000
90.52557238,-63.44188000
90.56557238,-68.73379000
90.60557238,-65.20585000
90.64557238,-66.96982000
90.68557238,-68.73379000
90.72557238,-68.73379000
90.76557238,-68.73379000
90.80557238,-68.73379000
90.84557238,-70.49776000
90.88557238,-70.49776000
90.92557238,-72.26173000
90.96557238,-74.02570000
91.00557238,-74.02570000
91.04557238,-74.02570000
91.08557238,-75.78967000
91.12557238,-75.78967000
91.16557238,-75.78967000
91.20557238,-77.55363000
91.24557238,-77.55363000
91.28557238,-79.31760000
91.32557238,-77.55363000
91.36557238,-81.08157000
91.40557238,-81.08157000
91.44557238,-81.08157000
91.48557238,-81.08157000
91.52557238,-82.85165000
91.56557238,-82.85165000
91.60557238,-82.85165000
91.64557238,-84.61562000
91.68557238,-84.61562000
91.72557237,-84.61562000
91.76557237,-86.37959000
91.80557237,-86.37959000
91.84557237,-86.37959000
91.88557237,-88.14356000
91.92557237,-88.14356000
91.96557237,-88.14356000
92.00557237,-89.90753000
92.04557237,-89.90753000
92.08557237,-89.90753000
92.12557237,-91.67150000
92.16557237,-91.67150000
92.20557237,-91.67150000
92.24557237,-91.67150000
92.28557237,-91.67150000
92.32557237,-91.67150000
92.36557237,-91.67150000
92.40557237,-93.43547000
92.44557237,-95.19944000
92.48557237,-95.19944000
92.52557237,-95.19944000
92.56557237,-95.19944000
92.60557237,-95.19944000
92.64557237,-96.96341000
92.68557237,-96.96341000
92.72557237,-96.96341000
92.76557237,-96.96341000
92.80557237,-96.96341000
92.84557237,-96.96341000
92.88557237,-96.96341000
92.92557237,-96.96341000
92.96557237,-98.72738000
93.00557237,-98.72738000
93.04557237,-98.72738000
93.08557237,-98.72738000
93.12557237,-98.72738000
93.16557237,-98.72738000
93.20557237,-98.72738000
93.24557237,-98.72738000
93.28557237,-100.49130000
93.32557237,-98.72738000
93.36557236,-100.49130000
93.40557236,-102.25530000
93.44557236,-100.49130000
93.48557236,-100.49130000
93.52557236,-102.25530000
93.56557236,-100.49130000
93.60557236,-102.25530000
93.64557236,-102.25530000
93.68557236,-102.25530000
93.72557236,-102.25530000
93.76557236,-102.25530000
93.80557236,-102.25530000
93.84557236,-102.25530000
93.88557236,-102.25530000
93.92557236,-102.25530000
93.96557236,-102.25530000
94.00557236,-102.25530000
94.04557236,-102.25530000
94.08557236,-102.25530000
94.12557236,-102.25530000
94.16557236,-102.25530000
94.20557236,-102.25530000
94.24557236,-102.25530000
94.28557236,-102.25530000
94.32557236,-102.25530000
94.36557236,-102.25530000
94.40557236,-100.49130000
94.44557236,-102.25530000
94.48557236,-100.49130000
94.52557236,-102.25530000
94.56557236,-102.25530000
94.60557236,-98.72738000
94.64557236,-100.49130000
94.68557236,-98.72738000
94.72557236,-98.72738000
94.76557236,-98.72738000
94.80557236,-98.72738000
94.84557236,-98.72738000
94.88557236,-98.72738000
94.92557236,-98.72738000
94.96557236,-96.96341000
95.00557235,-98.72738000
95.04557235,-96.96341000
95.08557235,-96.96341000
95.12557235,-96.96341000
95.16557235,-96.96341000
95.20557235,-96.96341000
95.24557235,-96.96341000
95.28557235,-96.96341000
95.32557235,-95.19944000
95.36557235,-95.19944000
95.40557235,-95.19944000
95.44557235,-95.19944000
95.48557235,-93.43547000
95.52557235,-95.19944000
95.56557235,-93.43547000
95.60557235,-91.67150000
95.64557235,-91.67150000
95.68557235,-91.67150000
95.72557235,-91.67150000
95.76557235,-89.90753000
95.80557235,-89.90753000
95.84557235,-91.67150000
95.88557235,-89.90753000
95.92557235,-88.14356000
95.96557235,-89.90753000
96.00557235,-88.14356000
96.04557235,-88.14356000
96.08557235,-88.14356000
96.12557235,-86.37959000
96.16557235,-88.14356000
96.20557235,-84.61562000
96.24557235,-84.61562000
96.28557235,-84.61562000
96.32557235,-82.85165000
96.36557235,-82.85165000
96.40557235,-82.85165000
96.44557235,-82.85165000
96.48557235,-82.85165000
96.52557235,-81.08157000
96.56557235,-79.31760000
96.60557235,-79.31760000
96.64557235,-77.55363000
96.68557234,-77.55363000
96.72557234,-75.78967000
96.76557234,-75.78967000
96.80557234,-75.78967000
96.84557234,-75.78967000
96.88557234,-75.78967000
96.92557234,-74.02570000
96.96557234,-74.02570000
97.00557234,-74.02570000
97.04557234,-72.26173000
97.08557234,-70.49776000
97.12557234,-70.49776000
97.16557234,-68.73379000
97.20557234,-68.73379000
97.24557234,-68.73379000
97.28557234,-68.73379000
97.32557234,-66.96982000
97.36557234,-66.96982000
97.40557234,-63.44188000
97.44557234,-63.44188000
97.48557234,-63.44188000
97.52557234,-61.67791000
97.56557234,-61.67791000
97.60557234,-61.67791000
97.64557234,-59.91394000
97.68557234,-59.91394000
97.72557234,-58.14997000
97.76557234,-56.38600000
97.80557234,-56.38600000
97.84557234,-56.38600000
97.88557234,-54.62203000
97.92557234,-54.62203000
97.96557234,-52.85195000
98.00557234,-52.85195000
98.04557234,-51.08798000
98.08557234,-49.32401000
98.12557234,-49.32401000
98.16557234,-47.56004000
98.20557234,-47.56004000
98.24557234,-45.79607000
98.28557234,-45.79607000
98.32557233,-45.79607000
98.36557233,-42.26814000
98.40557233,-42.26814000
98.44557233,-40.50417000
98.48557233,-40.50417000
98.52557233,-40.50417000
98.56557233,-38.74020000
98.60557233,-36.97623000
98.64557233,-36.97623000
98.68557233,-35.21225000
98.72557233,-33.44828000
98.76557233,-33.44828000
98.80557233,-33.44828000
98.84557233,-31.68431000
98.88557233,-31.68431000
98.92557233,-28.15638000
98.96557233,-28.15638000
99.00557233,-28.15638000
99.04557233,-26.39241000
99.08557233,-26.39241000
99.12557233,-26.39241000
99.16557233,-22.85836000
99.20557233,-22.85836000
99.24557233,-21.09439000
99.28557233,-21.09439000
99.32557233,-19.33042000
99.36557233,-19.33042000
99.40557233,-17.56645000
99.44557233,-17.56645000
99.48557233,-14.03851000
99.52557233,-14.03851000
99.56557233,-14.03851000
99.60557233,-12.27454000
99.64557233,-12.27454000
99.68557233,-10.51057000
99.72557233,-8.74660500
99.76557233,-6.98263500
99.80557233,-6.98263500
99.84557233,-5.21866500
99.88557233,-5.21866500
99.92557233,-3.45469500
99.96557232,-3.45469500
100.00557232,-1.69072500
