Time,Channel B
(us),(mV)

-100.11981794,-6.98263500
-100.07981794,-5.21866500
-100.03981794,-3.45469500
-99.99981794,-1.69072500
-99.95981794,0.07324442
-99.91981794,0.07324442
-99.87981795,3.60118400
-99.83981795,5.36515400
-99.79981795,7.12912400
-99.75981795,8.89309300
-99.71981795,10.65706000
-99.67981795,12.42103000
-99.63981795,14.18500000
-99.59981795,15.94897000
-99.55981795,15.94897000
-99.51981795,19.47691000
-99.47981795,21.24088000
-99.43981795,23.00485000
-99.39981795,23.00485000
-99.35981795,26.53279000
-99.31981795,28.29676000
-99.27981795,30.06684000
-99.23981795,31.83080000
-99.19981795,35.35874000
-99.15981795,35.35874000
-99.11981795,37.12271000
-99.07981795,38.88668000
-99.03981795,40.65065000
-98.99981795,42.41463000
-98.95981795,44.17860000
-98.91981795,45.94257000
-98.87981795,47.70654000
-98.83981795,49.47050000
-98.79981795,51.23447000
-98.75981795,52.99844000
-98.71981795,52.99844000
-98.67981795,56.52638000
-98.63981795,58.29646000
-98.59981795,58.29646000
-98.55981795,61.82440000
-98.51981795,63.58836000
-98.47981795,65.35233000
-98.43981795,65.35233000
-98.39981795,67.11631000
-98.35981795,70.64425000
-98.31981795,72.40822000
-98.27981795,72.40822000
-98.23981796,75.93616000
-98.19981796,75.93616000
-98.15981796,79.46410000
-98.11981796,79.46410000
-98.07981796,81.22807000
-98.03981796,82.99203000
-97.99981796,84.75600000
-97.95981796,86.52608000
-97.91981796,86.52608000
-97.87981796,88.29005000
-97.83981796,91.81799000
-97.79981796,91.81799000
-97.75981796,93.58195000
-97.71981796,95.34592000
-97.67981796,97.10989000
-97.63981796,98.87386000
-97.59981796,100.63780000
-97.55981796,100.63780000
-97.51981796,104.16580000
-97.47981796,105.92970000
-97.43981796,105.92970000
-97.39981796,107.69370000
-97.35981796,109.45770000
-97.31981796,109.45770000
-97.27981796,112.98560000
-97.23981796,114.75570000
-97.19981796,114.75570000
-97.15981796,114.75570000
-97.11981796,118.28360000
-97.07981796,120.04760000
-97.03981796,120.04760000
-96.99981796,121.81160000
-96.95981796,121.81160000
-96.91981796,123.57550000
-96.87981796,125.33950000
-96.83981796,127.10350000
-96.79981796,128.86740000
-96.75981796,128.86740000
-96.71981796,130.63140000
-96.67981796,132.39540000
-96.63981796,134.15940000
-96.59981797,134.15940000
-96.55981797,135.92330000
-96.51981797,137.68730000
-96.47981797,139.45130000
-96.43981797,139.45130000
-96.39981797,139.45130000
-96.35981797,142.98530000
-96.31981797,142.98530000
-96.27981797,142.98530000
-96.23981797,144.74930000
-96.19981797,146.51330000
-96.15981797,148.27720000
-96.11981797,148.27720000
-96.07981797,150.04120000
-96.03981797,150.04120000
-95.99981797,150.04120000
-95.95981797,151.80520000
-95.91981797,151.80520000
-95.87981797,155.33310000
-95.83981797,155.33310000
-95.79981797,155.33310000
-95.75981797,157.09710000
-95.71981797,157.09710000
-95.67981797,157.09710000
-95.63981797,158.86110000
-95.59981797,160.62500000
-95.55981797,160.62500000
-95.51981797,162.38900000
-95.47981797,162.38900000
-95.43981797,164.15300000
-95.39981797,164.15300000
-95.35981797,164.15300000
-95.31981797,165.91690000
-95.27981797,165.91690000
-95.23981797,165.91690000
-95.19981797,169.44490000
-95.15981797,169.44490000
-95.11981797,169.44490000
-95.07981797,169.44490000
-95.03981797,169.44490000
-94.99981797,171.21490000
-94.95981798,171.21490000
-94.91981798,171.21490000
-94.87981798,172.97890000
-94.83981798,172.97890000
-94.79981798,172.97890000
-94.75981798,172.97890000
-94.71981798,174.74290000
-94.67981798,174.74290000
-94.63981798,174.74290000
-94.59981798,176.50690000
-94.55981798,176.50690000
-94.51981798,176.50690000
-94.47981798,176.50690000
-94.43981798,178.27080000
-94.39981798,178.27080000
-94.35981798,178.27080000
-94.31981798,178.27080000
-94.27981798,178.27080000
-94.23981798,178.27080000
-94.19981798,178.27080000
-94.15981798,178.27080000
-94.11981798,178.27080000
-94.07981798,180.03480000
-94.03981798,180.03480000
-93.99981798,180.03480000
-93.95981798,180.03480000
-93.91981798,180.03480000
-93.87981798,180.03480000
-93.83981798,180.03480000
-93.79981798,180.03480000
-93.75981798,183.56270000
-93.71981798,178.27080000
-93.67981798,180.03480000
-93.63981798,183.56270000
-93.59981798,180.03480000
-93.55981798,180.03480000
-93.51981798,180.03480000
-93.47981798,180.03480000
-93.43981798,180.03480000
-93.39981798,180.03480000
-93.35981798,180.03480000
-93.31981799,180.03480000
-93.27981799,180.03480000
-93.23981799,178.27080000
-93.19981799,180.03480000
-93.15981799,178.27080000
-93.11981799,178.27080000
-93.07981799,178.27080000
-93.03981799,178.27080000
-92.99981799,178.27080000
-92.95981799,178.27080000
-92.91981799,178.27080000
-92.87981799,178.27080000
-92.83981799,176.50690000
-92.79981799,176.50690000
-92.75981799,176.50690000
-92.71981799,176.50690000
-92.67981799,176.50690000
-92.63981799,174.74290000
-92.59981799,174.74290000
-92.55981799,174.74290000
-92.51981799,172.97890000
-92.47981799,171.21490000
-92.43981799,171.21490000
-92.39981799,171.21490000
-92.35981799,171.21490000
-92.31981799,171.21490000
-92.27981799,169.44490000
-92.23981799,169.44490000
-92.19981799,169.44490000
-92.15981799,169.44490000
-92.11981799,167.68090000
-92.07981799,165.91690000
-92.03981799,165.91690000
-91.99981799,164.15300000
-91.95981799,164.15300000
-91.91981799,164.15300000
-91.87981799,162.38900000
-91.83981799,162.38900000
-91.79981799,162.38900000
-91.75981799,160.62500000
-91.71981799,158.86110000
-91.67981800,158.86110000
-91.63981800,157.09710000
-91.59981800,157.09710000
-91.55981800,157.09710000
-91.51981800,155.33310000
-91.47981800,155.33310000
-91.43981800,151.80520000
-91.39981800,151.80520000
-91.35981800,150.04120000
-91.31981800,150.04120000
-91.27981800,150.04120000
-91.23981800,148.27720000
-91.19981800,148.27720000
-91.15981800,146.51330000
-91.11981800,144.74930000
-91.07981800,144.74930000
-91.03981800,142.98530000
-90.99981800,142.98530000
-90.95981800,141.21520000
-90.91981800,141.21520000
-90.87981800,137.68730000
-90.83981800,135.92330000
-90.79981800,135.92330000
-90.75981800,135.92330000
-90.71981800,134.15940000
-90.67981800,132.39540000
-90.63981800,130.63140000
-90.59981800,128.86740000
-90.55981800,128.86740000
-90.51981800,127.10350000
-90.47981800,127.10350000
-90.43981800,123.57550000
-90.39981800,123.57550000
-90.35981800,121.81160000
-90.31981800,121.81160000
-90.27981800,120.04760000
-90.23981800,118.28360000
-90.19981800,116.51970000
-90.15981800,114.75570000
-90.11981800,114.75570000
-90.07981800,112.98560000
-90.03981801,111.22170000
-89.99981801,109.45770000
-89.95981801,107.69370000
-89.91981801,107.69370000
-89.87981801,105.92970000
-89.83981801,104.16580000
-89.79981801,100.63780000
-89.75981801,100.63780000
-89.71981801,98.87386000
-89.67981801,97.10989000
-89.63981801,95.34592000
-89.59981801,93.58195000
-89.55981801,93.58195000
-89.51981801,90.05402000
-89.47981801,90.05402000
-89.43981801,88.29005000
-89.39981801,86.52608000
-89.35981801,86.52608000
-89.31981801,84.75600000
-89.27981801,81.22807000
-89.23981801,79.46410000
-89.19981801,79.46410000
-89.15981801,77.70013000
-89.11981801,74.17219000
-89.07981801,72.40822000
-89.03981801,72.40822000
-88.99981801,70.64425000
-88.95981801,68.88028000
-88.91981801,65.35233000
-88.87981801,65.35233000
-88.83981801,63.58836000
-88.79981801,63.58836000
-88.75981801,60.06042000
-88.71981801,58.29646000
-88.67981801,56.52638000
-88.63981801,54.76241000
-88.59981801,52.99844000
-88.55981801,51.23447000
-88.51981801,51.23447000
-88.47981801,47.70654000
-88.43981801,45.94257000
-88.39981802,44.17860000
-88.35981802,44.17860000
-88.31981802,40.65065000
-88.27981802,38.88668000
-88.23981802,37.12271000
-88.19981802,35.35874000
-88.15981802,35.35874000
-88.11981802,31.83080000
-88.07981802,30.06684000
-88.03981802,28.29676000
-87.99981802,28.29676000
-87.95981802,24.76882000
-87.91981802,23.00485000
-87.87981802,21.24088000
-87.83981802,19.47691000
-87.79981802,17.71294000
-87.75981802,15.94897000
-87.71981802,14.18500000
-87.67981802,12.42103000
-87.63981802,10.65706000
-87.59981802,8.89309300
-87.55981802,7.12912400
-87.51981802,5.36515400
-87.47981802,1.83721400
-87.43981802,1.83721400
-87.39981802,0.07324442
-87.35981802,-1.69072500
-87.31981802,-3.45469500
-87.27981802,-5.21866500
-87.23981802,-6.98263500
-87.19981802,-8.74660500
-87.15981802,-10.51057000
-87.11981802,-12.27454000
-87.07981802,-14.03851000
-87.03981802,-17.56645000
-86.99981802,-19.33042000
-86.95981802,-22.85836000
-86.91981802,-21.09439000
-86.87981802,-22.85836000
-86.83981802,-26.39241000
-86.79981802,-26.39241000
-86.75981802,-28.15638000
-86.71981803,-31.68431000
-86.67981803,-31.68431000
-86.63981803,-33.44828000
-86.59981803,-35.21225000
-86.55981803,-38.74020000
-86.51981803,-38.74020000
-86.47981803,-40.50417000
-86.43981803,-42.26814000
-86.39981803,-45.79607000
-86.35981803,-47.56004000
-86.31981803,-49.32401000
-86.27981803,-49.32401000
-86.23981803,-52.85195000
-86.19981803,-54.62203000
-86.15981803,-54.62203000
-86.11981803,-56.38600000
-86.07981803,-59.91394000
-86.03981803,-61.67791000
-85.99981803,-61.67791000
-85.95981803,-63.44188000
-85.91981803,-66.96982000
-85.87981803,-68.73379000
-85.83981803,-68.73379000
-85.79981803,-70.49776000
-85.75981803,-72.26173000
-85.71981803,-74.02570000
-85.67981803,-75.78967000
-85.63981803,-75.78967000
-85.59981803,-77.55363000
-85.55981803,-81.08157000
-85.51981803,-82.85165000
-85.47981803,-82.85165000
-85.43981803,-84.61562000
-85.39981803,-86.37959000
-85.35981803,-88.14356000
-85.31981803,-89.90753000
-85.27981803,-91.67150000
-85.23981803,-91.67150000
-85.19981803,-95.19944000
-85.15981803,-96.96341000
-85.11981803,-96.96341000
-85.07981804,-98.72738000
-85.03981804,-100.49130000
-84.99981804,-102.25530000
-84.95981804,-104.01930000
-84.91981804,-104.01930000
-84.87981804,-105.78330000
-84.83981804,-107.54720000
-84.79981804,-111.08130000
-84.75981804,-111.08130000
-84.71981804,-111.08130000
-84.67981804,-112.84520000
-84.63981804,-114.60920000
-84.59981804,-116.37320000
-84.55981804,-118.13720000
-84.51981804,-118.13720000
-84.47981804,-119.90110000
-84.43981804,-121.66510000
-84.39981804,-123.42910000
-84.35981804,-125.19300000
-84.31981804,-125.19300000
-84.27981804,-126.95700000
-84.23981804,-128.72100000
-84.19981804,-130.48490000
-84.15981804,-130.48490000
-84.11981804,-132.24890000
-84.07981804,-134.01290000
-84.03981804,-134.01290000
-83.99981804,-135.77680000
-83.95981804,-137.54080000
-83.91981804,-137.54080000
-83.87981804,-139.31090000
-83.83981804,-139.31090000
-83.79981804,-141.07490000
-83.75981804,-141.07490000
-83.71981804,-144.60280000
-83.67981804,-144.60280000
-83.63981804,-146.36680000
-83.59981804,-146.36680000
-83.55981804,-146.36680000
-83.51981804,-148.13070000
-83.47981804,-148.13070000
-83.43981805,-151.65870000
-83.39981805,-151.65870000
-83.35981805,-153.42260000
-83.31981805,-153.42260000
-83.27981805,-153.42260000
-83.23981805,-155.18660000
-83.19981805,-155.18660000
-83.15981805,-158.71460000
-83.11981805,-158.71460000
-83.07981805,-158.71460000
-83.03981805,-160.47850000
-82.99981805,-160.47850000
-82.95981805,-160.47850000
-82.91981805,-162.24250000
-82.87981805,-162.24250000
-82.83981805,-162.24250000
-82.79981805,-164.00650000
-82.75981805,-164.00650000
-82.71981805,-165.77040000
-82.67981805,-165.77040000
-82.63981805,-167.54050000
-82.59981805,-167.54050000
-82.55981805,-167.54050000
-82.51981805,-167.54050000
-82.47981805,-169.30450000
-82.43981805,-169.30450000
-82.39981805,-169.30450000
-82.35981805,-169.30450000
-82.31981805,-171.06850000
-82.27981805,-172.83240000
-82.23981805,-172.83240000
-82.19981805,-172.83240000
-82.15981805,-174.59640000
-82.11981805,-172.83240000
-82.07981805,-174.59640000
-82.03981805,-174.59640000
-81.99981805,-174.59640000
-81.95981805,-174.59640000
-81.91981805,-176.36040000
-81.87981805,-176.36040000
-81.83981805,-174.59640000
-81.79981806,-176.36040000
-81.75981806,-176.36040000
-81.71981806,-176.36040000
-81.67981806,-176.36040000
-81.63981806,-176.36040000
-81.59981806,-179.88830000
-81.55981806,-178.12430000
-81.51981806,-176.36040000
-81.47981806,-178.12430000
-81.43981806,-178.12430000
-81.39981806,-178.12430000
-81.35981806,-178.12430000
-81.31981806,-178.12430000
-81.27981806,-178.12430000
-81.23981806,-178.12430000
-81.19981806,-178.12430000
-81.15981806,-178.12430000
-81.11981806,-178.12430000
-81.07981806,-178.12430000
-81.03981806,-178.12430000
-80.99981806,-178.12430000
-80.95981806,-178.12430000
-80.91981806,-178.12430000
-80.87981806,-178.12430000
-80.83981806,-178.12430000
-80.79981806,-178.12430000
-80.75981806,-176.36040000
-80.71981806,-178.12430000
-80.67981806,-176.36040000
-80.63981806,-176.36040000
-80.59981806,-178.12430000
-80.55981806,-176.36040000
-80.51981806,-176.36040000
-80.47981806,-176.36040000
-80.43981806,-176.36040000
-80.39981806,-174.59640000
-80.35981806,-174.59640000
-80.31981806,-174.59640000
-80.27981806,-174.59640000
-80.23981806,-174.59640000
-80.19981806,-174.59640000
-80.15981807,-172.83240000
-80.11981807,-172.83240000
-80.07981807,-172.83240000
-80.03981807,-172.83240000
-79.99981807,-169.30450000
-79.95981807,-171.06850000
-79.91981807,-169.30450000
-79.87981807,-169.30450000
-79.83981807,-169.30450000
-79.79981807,-167.54050000
-79.75981807,-167.54050000
-79.71981807,-167.54050000
-79.67981807,-167.54050000
-79.63981807,-165.77040000
-79.59981807,-165.77040000
-79.55981807,-164.00650000
-79.51981807,-164.00650000
-79.47981807,-162.24250000
-79.43981807,-160.47850000
-79.39981807,-160.47850000
-79.35981807,-160.47850000
-79.31981807,-160.47850000
-79.27981807,-158.71460000
-79.23981807,-158.71460000
-79.19981807,-158.71460000
-79.15981807,-155.18660000
-79.11981807,-155.18660000
-79.07981807,-153.42260000
-79.03981807,-153.42260000
-78.99981807,-153.42260000
-78.95981807,-151.65870000
-78.91981807,-149.89470000
-78.87981807,-149.89470000
-78.83981807,-149.89470000
-78.79981807,-146.36680000
-78.75981807,-146.36680000
-78.71981807,-148.13070000
-78.67981807,-144.60280000
-78.63981807,-144.60280000
-78.59981807,-142.83880000
-78.55981807,-141.07490000
-78.51981808,-141.07490000
-78.47981808,-139.31090000
-78.43981808,-139.31090000
-78.39981808,-137.54080000
-78.35981808,-135.77680000
-78.31981808,-134.01290000
-78.27981808,-134.01290000
-78.23981808,-132.24890000
-78.19981808,-132.24890000
-78.15981808,-130.48490000
-78.11981808,-128.72100000
-78.07981808,-126.95700000
-78.03981808,-125.19300000
-77.99981808,-125.19300000
-77.95981808,-125.19300000
-77.91981808,-121.66510000
-77.87981808,-119.90110000
-77.83981808,-118.13720000
-77.79981808,-118.13720000
-77.75981808,-116.37320000
-77.71981808,-116.37320000
-77.67981808,-112.84520000
-77.63981808,-112.84520000
-77.59981808,-111.08130000
-77.55981808,-111.08130000
-77.51981808,-109.31120000
-77.47981808,-105.78330000
-77.43981808,-105.78330000
-77.39981808,-104.01930000
-77.35981808,-104.01930000
-77.31981808,-102.25530000
-77.27981808,-98.72738000
-77.23981808,-96.96341000
-77.19981808,-96.96341000
-77.15981808,-95.19944000
-77.11981808,-93.43547000
-77.07981808,-89.90753000
-77.03981808,-89.90753000
-76.99981808,-88.14356000
-76.95981808,-88.14356000
-76.91981808,-84.61562000
-76.87981809,-82.85165000
-76.83981809,-82.85165000
-76.79981809,-81.08157000
-76.75981809,-77.55363000
-76.71981809,-77.55363000
-76.67981809,-75.78967000
-76.63981809,-74.02570000
-76.59981809,-74.02570000
-76.55981809,-70.49776000
-76.51981809,-68.73379000
-76.47981809,-68.73379000
-76.43981809,-65.20585000
-76.39981809,-63.44188000
-76.35981809,-63.44188000
-76.31981809,-61.67791000
-76.27981809,-59.91394000
-76.23981809,-56.38600000
-76.19981809,-56.38600000
-76.15981809,-54.62203000
-76.11981809,-52.85195000
-76.07981809,-51.08798000
-76.03981809,-49.32401000
-75.99981809,-47.56004000
-75.95981809,-45.79607000
-75.91981809,-42.26814000
-75.87981809,-40.50417000
-75.83981809,-40.50417000
-75.79981809,-38.74020000
-75.75981809,-35.21225000
-75.71981809,-33.44828000
-75.67981809,-33.44828000
-75.63981809,-31.68431000
-75.59981809,-29.92035000
-75.55981809,-28.15638000
-75.51981809,-26.39241000
-75.47981809,-24.62233000
-75.43981809,-22.85836000
-75.39981809,-21.09439000
-75.35981809,-19.33042000
-75.31981809,-17.56645000
-75.27981809,-14.03851000
-75.23981809,-12.27454000
-75.19981810,-12.27454000
-75.15981810,-8.74660500
-75.11981810,-6.98263500
-75.07981810,-5.21866500
-75.03981810,-5.21866500
-74.99981810,-1.69072500
-74.95981810,0.07324442
-74.91981810,1.83721400
-74.87981810,1.83721400
-74.83981810,5.36515400
-74.79981810,7.12912400
-74.75981810,8.89309300
-74.71981810,8.89309300
-74.67981810,12.42103000
-74.63981810,14.18500000
-74.59981810,15.94897000
-74.55981810,15.94897000
-74.51981810,21.24088000
-74.47981810,21.24088000
-74.43981810,23.00485000
-74.39981810,23.00485000
-74.35981810,26.53279000
-74.31981810,28.29676000
-74.27981810,30.06684000
-74.23981810,31.83080000
-74.19981810,33.59477000
-74.15981810,35.35874000
-74.11981810,37.12271000
-74.07981810,38.88668000
-74.03981810,40.65065000
-73.99981810,42.41463000
-73.95981810,44.17860000
-73.91981810,44.17860000
-73.87981810,47.70654000
-73.83981810,49.47050000
-73.79981810,51.23447000
-73.75981810,52.99844000
-73.71981810,54.76241000
-73.67981810,58.29646000
-73.63981810,58.29646000
-73.59981810,58.29646000
-73.55981811,61.82440000
-73.51981811,63.58836000
-73.47981811,65.35233000
-73.43981811,65.35233000
-73.39981811,67.11631000
-73.35981811,70.64425000
-73.31981811,72.40822000
-73.27981811,72.40822000
-73.23981811,75.93616000
-73.19981811,77.70013000
-73.15981811,79.46410000
-73.11981811,79.46410000
-73.07981811,81.22807000
-73.03981811,82.99203000
-72.99981811,84.75600000
-72.95981811,86.52608000
-72.91981811,86.52608000
-72.87981811,88.29005000
-72.83981811,91.81799000
-72.79981811,93.58195000
-72.75981811,93.58195000
-72.71981811,95.34592000
-72.67981811,97.10989000
-72.63981811,98.87386000
-72.59981811,100.63780000
-72.55981811,102.40180000
-72.51981811,104.16580000
-72.47981811,105.92970000
-72.43981811,105.92970000
-72.39981811,107.69370000
-72.35981811,107.69370000
-72.31981811,109.45770000
-72.27981811,112.98560000
-72.23981811,112.98560000
-72.19981811,114.75570000
-72.15981811,114.75570000
-72.11981811,118.28360000
-72.07981811,120.04760000
-72.03981811,116.51970000
-71.99981811,123.57550000
-71.95981811,123.57550000
-71.91981812,123.57550000
-71.87981812,125.33950000
-71.83981812,127.10350000
-71.79981812,127.10350000
-71.75981812,128.86740000
-71.71981812,130.63140000
-71.67981812,130.63140000
-71.63981812,134.15940000
-71.59981812,134.15940000
-71.55981812,135.92330000
-71.51981812,135.92330000
-71.47981812,137.68730000
-71.43981812,139.45130000
-71.39981812,141.21520000
-71.35981812,141.21520000
-71.31981812,142.98530000
-71.27981812,142.98530000
-71.23981812,144.74930000
-71.19981812,146.51330000
-71.15981812,148.27720000
-71.11981812,148.27720000
-71.07981812,150.04120000
-71.03981812,150.04120000
-70.99981812,150.04120000
-70.95981812,151.80520000
-70.91981812,151.80520000
-70.87981812,153.56910000
-70.83981812,155.33310000
-70.79981812,155.33310000
-70.75981812,157.09710000
-70.71981812,157.09710000
-70.67981812,158.86110000
-70.63981812,158.86110000
-70.59981812,158.86110000
-70.55981812,162.38900000
-70.51981812,162.38900000
-70.47981812,162.38900000
-70.43981812,164.15300000
-70.39981812,164.15300000
-70.35981812,164.15300000
-70.31981812,165.91690000
-70.27981813,165.91690000
-70.23981813,165.91690000
-70.19981813,167.68090000
-70.15981813,167.68090000
-70.11981813,169.44490000
-70.07981813,169.44490000
-70.03981813,171.21490000
-69.99981813,171.21490000
-69.95981813,171.21490000
-69.91981813,171.21490000
-69.87981813,172.97890000
-69.83981813,172.97890000
-69.79981813,172.97890000
-69.75981813,174.74290000
-69.71981813,174.74290000
-69.67981813,174.74290000
-69.63981813,176.50690000
-69.59981813,176.50690000
-69.55981813,176.50690000
-69.51981813,176.50690000
-69.47981813,178.27080000
-69.43981813,178.27080000
-69.39981813,178.27080000
-69.35981813,178.27080000
-69.31981813,178.27080000
-69.27981813,178.27080000
-69.23981813,178.27080000
-69.19981813,178.27080000
-69.15981813,180.03480000
-69.11981813,178.27080000
-69.07981813,178.27080000
-69.03981813,180.03480000
-68.99981813,180.03480000
-68.95981813,180.03480000
-68.91981813,180.03480000
-68.87981813,180.03480000
-68.83981813,180.03480000
-68.79981813,180.03480000
-68.75981813,180.03480000
-68.71981813,180.03480000
-68.67981813,180.03480000
-68.63981814,180.03480000
-68.59981814,180.03480000
-68.55981814,180.03480000
-68.51981814,180.03480000
-68.47981814,180.03480000
-68.43981814,180.03480000
-68.39981814,180.03480000
-68.35981814,180.03480000
-68.31981814,178.27080000
-68.27981814,180.03480000
-68.23981814,178.27080000
-68.19981814,178.27080000
-68.15981814,178.27080000
-68.11981814,178.27080000
-68.07981814,178.27080000
-68.03981814,178.27080000
-67.99981814,178.27080000
-67.95981814,178.27080000
-67.91981814,178.27080000
-67.87981814,178.27080000
-67.83981814,176.50690000
-67.79981814,176.50690000
-67.75981814,176.50690000
-67.71981814,176.50690000
-67.67981814,174.74290000
-67.63981814,174.74290000
-67.59981814,174.74290000
-67.55981814,172.97890000
-67.51981814,172.97890000
-67.47981814,172.97890000
-67.43981814,171.21490000
-67.39981814,171.21490000
-67.35981814,171.21490000
-67.31981814,171.21490000
-67.27981814,169.44490000
-67.23981814,169.44490000
-67.19981814,169.44490000
-67.15981814,167.68090000
-67.11981814,167.68090000
-67.07981814,165.91690000
-67.03981814,165.91690000
-66.99981815,164.15300000
-66.95981815,164.15300000
-66.91981815,164.15300000
-66.87981815,162.38900000
-66.83981815,160.62500000
-66.79981815,162.38900000
-66.75981815,160.62500000
-66.71981815,160.62500000
-66.67981815,158.86110000
-66.63981815,157.09710000
-66.59981815,157.09710000
-66.55981815,157.09710000
-66.51981815,155.33310000
-66.47981815,155.33310000
-66.43981815,155.33310000
-66.39981815,151.80520000
-66.35981815,150.04120000
-66.31981815,150.04120000
-66.27981815,150.04120000
-66.23981815,148.27720000
-66.19981815,148.27720000
-66.15981815,146.51330000
-66.11981815,144.74930000
-66.07981815,142.98530000
-66.03981815,142.98530000
-65.99981815,142.98530000
-65.95981815,141.21520000
-65.91981815,139.45130000
-65.87981815,137.68730000
-65.83981815,135.92330000
-65.79981815,135.92330000
-65.75981815,135.92330000
-65.71981815,134.15940000
-65.67981815,132.39540000
-65.63981815,130.63140000
-65.59981815,128.86740000
-65.55981815,128.86740000
-65.51981815,127.10350000
-65.47981815,127.10350000
-65.43981815,123.57550000
-65.39981815,123.57550000
-65.35981816,121.81160000
-65.31981816,120.04760000
-65.27981816,120.04760000
-65.23981816,118.28360000
-65.19981816,116.51970000
-65.15981816,114.75570000
-65.11981816,112.98560000
-65.07981816,112.98560000
-65.03981816,109.45770000
-64.99981816,109.45770000
-64.95981816,107.69370000
-64.91981816,105.92970000
-64.87981816,105.92970000
-64.83981816,102.40180000
-64.79981816,100.63780000
-64.75981816,100.63780000
-64.71981816,98.87386000
-64.67981816,97.10989000
-64.63981816,95.34592000
-64.59981816,93.58195000
-64.55981816,93.58195000
-64.51981816,91.81799000
-64.47981816,88.29005000
-64.43981816,88.29005000
-64.39981816,86.52608000
-64.35981816,84.75600000
-64.31981816,82.99203000
-64.27981816,81.22807000
-64.23981816,79.46410000
-64.19981816,79.46410000
-64.15981816,77.70013000
-64.11981816,77.70013000
-64.07981816,72.40822000
-64.03981816,72.40822000
-63.99981816,72.40822000
-63.95981816,68.88028000
-63.91981816,65.35233000
-63.87981816,63.58836000
-63.83981816,63.58836000
-63.79981816,61.82440000
-63.75981816,60.06042000
-63.71981816,58.29646000
-63.67981817,56.52638000
-63.63981817,54.76241000
-63.59981817,52.99844000
-63.55981817,51.23447000
-63.51981817,49.47050000
-63.47981817,49.47050000
-63.43981817,45.94257000
-63.39981817,44.17860000
-63.35981817,42.41463000
-63.31981817,40.65065000
-63.27981817,38.88668000
-63.23981817,37.12271000
-63.19981817,35.35874000
-63.15981817,33.59477000
-63.11981817,31.83080000
-63.07981817,30.06684000
-63.03981817,28.29676000
-62.99981817,28.29676000
-62.95981817,24.76882000
-62.91981817,23.00485000
-62.87981817,21.24088000
-62.83981817,19.47691000
-62.79981817,17.71294000
-62.75981817,15.94897000
-62.71981817,14.18500000
-62.67981817,12.42103000
-62.63981817,10.65706000
-62.59981817,8.89309300
-62.55981817,7.12912400
-62.51981817,5.36515400
-62.47981817,1.83721400
-62.43981817,1.83721400
-62.39981817,0.07324442
-62.35981817,-3.45469500
-62.31981817,-3.45469500
-62.27981817,-5.21866500
-62.23981817,-6.98263500
-62.19981817,-8.74660500
-62.15981817,-12.27454000
-62.11981817,-14.03851000
-62.07981817,-14.03851000
-62.03981818,-17.56645000
-61.99981818,-19.33042000
-61.95981818,-19.33042000
-61.91981818,-21.09439000
-61.87981818,-24.62233000
-61.83981818,-26.39241000
-61.79981818,-26.39241000
-61.75981818,-29.92035000
-61.71981818,-31.68431000
-61.67981818,-33.44828000
-61.63981818,-33.44828000
-61.59981818,-35.21225000
-61.55981818,-38.74020000
-61.51981818,-40.50417000
-61.47981818,-40.50417000
-61.43981818,-40.50417000
-61.39981818,-45.79607000
-61.35981818,-47.56004000
-61.31981818,-49.32401000
-61.27981818,-51.08798000
-61.23981818,-52.85195000
-61.19981818,-54.62203000
-61.15981818,-54.62203000
-61.11981818,-56.38600000
-61.07981818,-59.91394000
-61.03981818,-61.67791000
-60.99981818,-61.67791000
-60.95981818,-63.44188000
-60.91981818,-65.20585000
-60.87981818,-66.96982000
-60.83981818,-68.73379000
-60.79981818,-70.49776000
-60.75981818,-72.26173000
-60.71981818,-74.02570000
-60.67981818,-75.78967000
-60.63981818,-77.55363000
-60.59981818,-79.31760000
-60.55981818,-81.08157000
-60.51981818,-82.85165000
-60.47981818,-82.85165000
-60.43981818,-84.61562000
-60.39981819,-86.37959000
-60.35981819,-88.14356000
-60.31981819,-89.90753000
-60.27981819,-91.67150000
-60.23981819,-91.67150000
-60.19981819,-95.19944000
-60.15981819,-96.96341000
-60.11981819,-96.96341000
-60.07981819,-98.72738000
-60.03981819,-100.49130000
-59.99981819,-102.25530000
-59.95981819,-104.01930000
-59.91981819,-105.78330000
-59.87981819,-105.78330000
-59.83981819,-105.78330000
-59.79981819,-111.08130000
-59.75981819,-111.08130000
-59.71981819,-111.08130000
-59.67981819,-112.84520000
-59.63981819,-116.37320000
-59.59981819,-116.37320000
-59.55981819,-118.13720000
-59.51981819,-118.13720000
-59.47981819,-119.90110000
-59.43981819,-119.90110000
-59.39981819,-123.42910000
-59.35981819,-125.19300000
-59.31981819,-125.19300000
-59.27981819,-126.95700000
-59.23981819,-126.95700000
-59.19981819,-130.48490000
-59.15981819,-132.24890000
-59.11981819,-132.24890000
-59.07981819,-132.24890000
-59.03981819,-134.01290000
-58.99981819,-135.77680000
-58.95981819,-137.54080000
-58.91981819,-139.31090000
-58.87981819,-139.31090000
-58.83981819,-139.31090000
-58.79981819,-141.07490000
-58.75981820,-142.83880000
-58.71981820,-144.60280000
-58.67981820,-144.60280000
-58.63981820,-146.36680000
-58.59981820,-146.36680000
-58.55981820,-148.13070000
-58.51981820,-148.13070000
-58.47981820,-149.89470000
-58.43981820,-149.89470000
-58.39981820,-151.65870000
-58.35981820,-153.42260000
-58.31981820,-153.42260000
-58.27981820,-153.42260000
-58.23981820,-155.18660000
-58.19981820,-155.18660000
-58.15981820,-156.95060000
-58.11981820,-158.71460000
-58.07981820,-158.71460000
-58.03981820,-160.47850000
-57.99981820,-160.47850000
-57.95981820,-160.47850000
-57.91981820,-162.24250000
-57.87981820,-162.24250000
-57.83981820,-162.24250000
-57.79981820,-164.00650000
-57.75981820,-165.77040000
-57.71981820,-165.77040000
-57.67981820,-167.54050000
-57.63981820,-167.54050000
-57.59981820,-167.54050000
-57.55981820,-167.54050000
-57.51981820,-169.30450000
-57.47981820,-169.30450000
-57.43981820,-169.30450000
-57.39981820,-169.30450000
-57.35981820,-171.06850000
-57.31981820,-171.06850000
-57.27981820,-174.59640000
-57.23981820,-172.83240000
-57.19981820,-172.83240000
-57.15981820,-174.59640000
-57.11981821,-174.59640000
-57.07981821,-174.59640000
-57.03981821,-174.59640000
-56.99981821,-174.59640000
-56.95981821,-176.36040000
-56.91981821,-176.36040000
-56.87981821,-176.36040000
-56.83981821,-176.36040000
-56.79981821,-176.36040000
-56.75981821,-176.36040000
-56.71981821,-176.36040000
-56.67981821,-176.36040000
-56.63981821,-176.36040000
-56.59981821,-178.12430000
-56.55981821,-178.12430000
-56.51981821,-179.88830000
-56.47981821,-178.12430000
-56.43981821,-178.12430000
-56.39981821,-179.88830000
-56.35981821,-178.12430000
-56.31981821,-178.12430000
-56.27981821,-179.88830000
-56.23981821,-178.12430000
-56.19981821,-178.12430000
-56.15981821,-178.12430000
-56.11981821,-179.88830000
-56.07981821,-178.12430000
-56.03981821,-178.12430000
-55.99981821,-178.12430000
-55.95981821,-178.12430000
-55.91981821,-178.12430000
-55.87981821,-178.12430000
-55.83981821,-178.12430000
-55.79981821,-176.36040000
-55.75981821,-176.36040000
-55.71981821,-176.36040000
-55.67981821,-176.36040000
-55.63981821,-176.36040000
-55.59981821,-176.36040000
-55.55981821,-176.36040000
-55.51981821,-176.36040000
-55.47981822,-176.36040000
-55.43981822,-176.36040000
-55.39981822,-174.59640000
-55.35981822,-174.59640000
-55.31981822,-174.59640000
-55.27981822,-174.59640000
-55.23981822,-174.59640000
-55.19981822,-174.59640000
-55.15981822,-174.59640000
-55.11981822,-172.83240000
-55.07981822,-172.83240000
-55.03981822,-171.06850000
-54.99981822,-171.06850000
-54.95981822,-169.30450000
-54.91981822,-169.30450000
-54.87981822,-169.30450000
-54.83981822,-167.54050000
-54.79981822,-167.54050000
-54.75981822,-167.54050000
-54.71981822,-167.54050000
-54.67981822,-167.54050000
-54.63981822,-167.54050000
-54.59981822,-165.77040000
-54.55981822,-164.00650000
-54.51981822,-164.00650000
-54.47981822,-162.24250000
-54.43981822,-162.24250000
-54.39981822,-162.24250000
-54.35981822,-160.47850000
-54.31981822,-160.47850000
-54.27981822,-160.47850000
-54.23981822,-158.71460000
-54.19981822,-158.71460000
-54.15981822,-155.18660000
-54.11981822,-155.18660000
-54.07981822,-153.42260000
-54.03981822,-153.42260000
-53.99981822,-153.42260000
-53.95981822,-151.65870000
-53.91981822,-151.65870000
-53.87981822,-149.89470000
-53.83981823,-148.13070000
-53.79981823,-148.13070000
-53.75981823,-146.36680000
-53.71981823,-146.36680000
-53.67981823,-146.36680000
-53.63981823,-144.60280000
-53.59981823,-142.83880000
-53.55981823,-141.07490000
-53.51981823,-141.07490000
-53.47981823,-139.31090000
-53.43981823,-139.31090000
-53.39981823,-137.54080000
-53.35981823,-135.77680000
-53.31981823,-134.01290000
-53.27981823,-134.01290000
-53.23981823,-132.24890000
-53.19981823,-132.24890000
-53.15981823,-130.48490000
-53.11981823,-128.72100000
-53.07981823,-126.95700000
-53.03981823,-126.95700000
-52.99981823,-125.19300000
-52.95981823,-123.42910000
-52.91981823,-121.66510000
-52.87981823,-119.90110000
-52.83981823,-119.90110000
-52.79981823,-118.13720000
-52.75981823,-118.13720000
-52.71981823,-116.37320000
-52.67981823,-112.84520000
-52.63981823,-112.84520000
-52.59981823,-111.08130000
-52.55981823,-111.08130000
-52.51981823,-109.31120000
-52.47981823,-105.78330000
-52.43981823,-105.78330000
-52.39981823,-104.01930000
-52.35981823,-104.01930000
-52.31981823,-102.25530000
-52.27981823,-98.72738000
-52.23981823,-96.96341000
-52.19981824,-96.96341000
-52.15981824,-95.19944000
-52.11981824,-93.43547000
-52.07981824,-91.67150000
-52.03981824,-89.90753000
-51.99981824,-88.14356000
-51.95981824,-84.61562000
-51.91981824,-84.61562000
-51.87981824,-84.61562000
-51.83981824,-82.85165000
-51.79981824,-81.08157000
-51.75981824,-77.55363000
-51.71981824,-77.55363000
-51.67981824,-75.78967000
-51.63981824,-74.02570000
-51.59981824,-72.26173000
-51.55981824,-70.49776000
-51.51981824,-68.73379000
-51.47981824,-68.73379000
-51.43981824,-66.96982000
-51.39981824,-63.44188000
-51.35981824,-61.67791000
-51.31981824,-61.67791000
-51.27981824,-59.91394000
-51.23981824,-56.38600000
-51.19981824,-56.38600000
-51.15981824,-54.62203000
-51.11981824,-52.85195000
-51.07981824,-51.08798000
-51.03981824,-49.32401000
-50.99981824,-47.56004000
-50.95981824,-45.79607000
-50.91981824,-42.26814000
-50.87981824,-42.26814000
-50.83981824,-40.50417000
-50.79981824,-38.74020000
-50.75981824,-36.97623000
-50.71981824,-33.44828000
-50.67981824,-33.44828000
-50.63981824,-31.68431000
-50.59981824,-29.92035000
-50.55981824,-26.39241000
-50.51981825,-26.39241000
-50.47981825,-24.62233000
-50.43981825,-21.09439000
-50.39981825,-21.09439000
-50.35981825,-19.33042000
-50.31981825,-17.56645000
-50.27981825,-14.03851000
-50.23981825,-14.03851000
-50.19981825,-12.27454000
-50.15981825,-10.51057000
-50.11981825,-6.98263500
-50.07981825,-5.21866500
-50.03981825,-5.21866500
-49.99981825,-3.45469500
-49.95981825,0.07324442
-49.91981825,1.83721400
-49.87981825,1.83721400
-49.83981825,3.60118400
-49.79981825,7.12912400
-49.75981825,8.89309300
-49.71981825,8.89309300
-49.67981825,10.65706000
-49.63981825,14.18500000
-49.59981825,15.94897000
-49.55981825,17.71294000
-49.51981825,17.71294000
-49.47981825,21.24088000
-49.43981825,23.00485000
-49.39981825,24.76882000
-49.35981825,24.76882000
-49.31981825,28.29676000
-49.27981825,30.06684000
-49.23981825,30.06684000
-49.19981825,33.59477000
-49.15981825,35.35874000
-49.11981825,35.35874000
-49.07981825,40.65065000
-49.03981825,40.65065000
-48.99981825,42.41463000
-48.95981825,44.17860000
-48.91981825,45.94257000
-48.87981826,47.70654000
-48.83981826,51.23447000
-48.79981826,51.23447000
-48.75981826,52.99844000
-48.71981826,54.76241000
-48.67981826,56.52638000
-48.63981826,58.29646000
-48.59981826,58.29646000
-48.55981826,60.06042000
-48.51981826,63.58836000
-48.47981826,65.35233000
-48.43981826,65.35233000
-48.39981826,67.11631000
-48.35981826,70.64425000
-48.31981826,72.40822000
-48.27981826,72.40822000
-48.23981826,74.17219000
-48.19981826,75.93616000
-48.15981826,79.46410000
-48.11981826,79.46410000
-48.07981826,81.22807000
-48.03981826,81.22807000
-47.99981826,84.75600000
-47.95981826,84.75600000
-47.91981826,86.52608000
-47.87981826,88.29005000
-47.83981826,91.81799000
-47.79981826,91.81799000
-47.75981826,93.58195000
-47.71981826,95.34592000
-47.67981826,97.10989000
-47.63981826,98.87386000
-47.59981826,100.63780000
-47.55981826,100.63780000
-47.51981826,104.16580000
-47.47981826,105.92970000
-47.43981826,107.69370000
-47.39981826,107.69370000
-47.35981826,109.45770000
-47.31981826,111.22170000
-47.27981826,111.22170000
-47.23981827,112.98560000
-47.19981827,114.75570000
-47.15981827,116.51970000
-47.11981827,116.51970000
-47.07981827,120.04760000
-47.03981827,120.04760000
-46.99981827,121.81160000
-46.95981827,121.81160000
-46.91981827,123.57550000
-46.87981827,125.33950000
-46.83981827,127.10350000
-46.79981827,128.86740000
-46.75981827,128.86740000
-46.71981827,130.63140000
-46.67981827,132.39540000
-46.63981827,134.15940000
-46.59981827,134.15940000
-46.55981827,135.92330000
-46.51981827,135.92330000
-46.47981827,137.68730000
-46.43981827,137.68730000
-46.39981827,141.21520000
-46.35981827,141.21520000
-46.31981827,142.98530000
-46.27981827,142.98530000
-46.23981827,144.74930000
-46.19981827,144.74930000
-46.15981827,148.27720000
-46.11981827,148.27720000
-46.07981827,148.27720000
-46.03981827,150.04120000
-45.99981827,150.04120000
-45.95981827,151.80520000
-45.91981827,151.80520000
-45.87981827,155.33310000
-45.83981827,155.33310000
-45.79981827,155.33310000
-45.75981827,157.09710000
-45.71981827,157.09710000
-45.67981827,157.09710000
-45.63981827,158.86110000
-45.59981828,160.62500000
-45.55981828,162.38900000
-45.51981828,162.38900000
-45.47981828,162.38900000
-45.43981828,164.15300000
-45.39981828,164.15300000
-45.35981828,165.91690000
-45.31981828,165.91690000
-45.27981828,165.91690000
-45.23981828,165.91690000
-45.19981828,167.68090000
-45.15981828,169.44490000
-45.11981828,169.44490000
-45.07981828,169.44490000
-45.03981828,171.21490000
-44.99981828,171.21490000
-44.95981828,171.21490000
-44.91981828,171.21490000
-44.87981828,172.97890000
-44.83981828,172.97890000
-44.79981828,172.97890000
-44.75981828,172.97890000
-44.71981828,174.74290000
-44.67981828,174.74290000
-44.63981828,176.50690000
-44.59981828,176.50690000
-44.55981828,176.50690000
-44.51981828,176.50690000
-44.47981828,176.50690000
-44.43981828,178.27080000
-44.39981828,178.27080000
-44.35981828,178.27080000
-44.31981828,178.27080000
-44.27981828,178.27080000
-44.23981828,178.27080000
-44.19981828,178.27080000
-44.15981828,178.27080000
-44.11981828,180.03480000
-44.07981828,180.03480000
-44.03981828,180.03480000
-43.99981828,180.03480000
-43.95981829,178.27080000
-43.91981829,180.03480000
-43.87981829,180.03480000
-43.83981829,180.03480000
-43.79981829,180.03480000
-43.75981829,180.03480000
-43.71981829,180.03480000
-43.67981829,180.03480000
-43.63981829,180.03480000
-43.59981829,180.03480000
-43.55981829,180.03480000
-43.51981829,180.03480000
-43.47981829,180.03480000
-43.43981829,178.27080000
-43.39981829,180.03480000
-43.35981829,180.03480000
-43.31981829,180.03480000
-43.27981829,180.03480000
-43.23981829,180.03480000
-43.19981829,178.27080000
-43.15981829,178.27080000
-43.11981829,178.27080000
-43.07981829,178.27080000
-43.03981829,178.27080000
-42.99981829,178.27080000
-42.95981829,178.27080000
-42.91981829,176.50690000
-42.87981829,178.27080000
-42.83981829,176.50690000
-42.79981829,176.50690000
-42.75981829,176.50690000
-42.71981829,176.50690000
-42.67981829,174.74290000
-42.63981829,174.74290000
-42.59981829,172.97890000
-42.55981829,172.97890000
-42.51981829,172.97890000
-42.47981829,171.21490000
-42.43981829,174.74290000
-42.39981829,171.21490000
-42.35981829,169.44490000
-42.31981830,169.44490000
-42.27981830,171.21490000
-42.23981830,169.44490000
-42.19981830,169.44490000
-42.15981830,167.68090000
-42.11981830,167.68090000
-42.07981830,165.91690000
-42.03981830,165.91690000
-41.99981830,164.15300000
-41.95981830,164.15300000
-41.91981830,164.15300000
-41.87981830,162.38900000
-41.83981830,162.38900000
-41.79981830,160.62500000
-41.75981830,160.62500000
-41.71981830,158.86110000
-41.67981830,157.09710000
-41.63981830,157.09710000
-41.59981830,157.09710000
-41.55981830,155.33310000
-41.51981830,155.33310000
-41.47981830,153.56910000
-41.43981830,151.80520000
-41.39981830,151.80520000
-41.35981830,150.04120000
-41.31981830,150.04120000
-41.27981830,148.27720000
-41.23981830,148.27720000
-41.19981830,146.51330000
-41.15981830,146.51330000
-41.11981830,144.74930000
-41.07981830,142.98530000
-41.03981830,142.98530000
-40.99981830,141.21520000
-40.95981830,141.21520000
-40.91981830,139.45130000
-40.87981830,137.68730000
-40.83981830,135.92330000
-40.79981830,135.92330000
-40.75981830,135.92330000
-40.71981830,134.15940000
-40.67981831,130.63140000
-40.63981831,130.63140000
-40.59981831,128.86740000
-40.55981831,128.86740000
-40.51981831,127.10350000
-40.47981831,125.33950000
-40.43981831,123.57550000
-40.39981831,121.81160000
-40.35981831,121.81160000
-40.31981831,120.04760000
-40.27981831,120.04760000
-40.23981831,116.51970000
-40.19981831,116.51970000
-40.15981831,114.75570000
-40.11981831,112.98560000
-40.07981831,112.98560000
-40.03981831,109.45770000
-39.99981831,109.45770000
-39.95981831,107.69370000
-39.91981831,107.69370000
-39.87981831,105.92970000
-39.83981831,104.16580000
-39.79981831,100.63780000
-39.75981831,100.63780000
-39.71981831,98.87386000
-39.67981831,98.87386000
-39.63981831,95.34592000
-39.59981831,93.58195000
-39.55981831,91.81799000
-39.51981831,91.81799000
-39.47981831,88.29005000
-39.43981831,86.52608000
-39.39981831,86.52608000
-39.35981831,86.52608000
-39.31981831,84.75600000
-39.27981831,81.22807000
-39.23981831,79.46410000
-39.19981831,77.70013000
-39.15981831,77.70013000
-39.11981831,74.17219000
-39.07981831,72.40822000
-39.03981831,72.40822000
-38.99981832,70.64425000
-38.95981832,67.11631000
-38.91981832,67.11631000
-38.87981832,65.35233000
-38.83981832,63.58836000
-38.79981832,61.82440000
-38.75981832,60.06042000
-38.71981832,58.29646000
-38.67981832,58.29646000
-38.63981832,54.76241000
-38.59981832,52.99844000
-38.55981832,51.23447000
-38.51981832,49.47050000
-38.47981832,49.47050000
-38.43981832,45.94257000
-38.39981832,44.17860000
-38.35981832,42.41463000
-38.31981832,40.65065000
-38.27981832,38.88668000
-38.23981832,37.12271000
-38.19981832,37.12271000
-38.15981832,35.35874000
-38.11981832,31.83080000
-38.07981832,30.06684000
-38.03981832,28.29676000
-37.99981832,26.53279000
-37.95981832,24.76882000
-37.91981832,23.00485000
-37.87981832,21.24088000
-37.83981832,19.47691000
-37.79981832,15.94897000
-37.75981832,15.94897000
-37.71981832,14.18500000
-37.67981832,10.65706000
-37.63981832,8.89309300
-37.59981832,8.89309300
-37.55981832,7.12912400
-37.51981832,5.36515400
-37.47981832,3.60118400
-37.43981832,1.83721400
-37.39981832,0.07324442
-37.35981833,-1.69072500
-37.31981833,-5.21866500
-37.27981833,-5.21866500
-37.23981833,-5.21866500
-37.19981833,-10.51057000
-37.15981833,-12.27454000
-37.11981833,-14.03851000
-37.07981833,-15.80248000
-37.03981833,-17.56645000
-36.99981833,-19.33042000
-36.95981833,-21.09439000
-36.91981833,-21.09439000
-36.87981833,-24.62233000
-36.83981833,-26.39241000
-36.79981833,-26.39241000
-36.75981833,-28.15638000
-36.71981833,-31.68431000
-36.67981833,-33.44828000
-36.63981833,-35.21225000
-36.59981833,-35.21225000
-36.55981833,-38.74020000
-36.51981833,-40.50417000
-36.47981833,-40.50417000
-36.43981833,-44.03210000
-36.39981833,-45.79607000
-36.35981833,-47.56004000
-36.31981833,-49.32401000
-36.27981833,-49.32401000
-36.23981833,-51.08798000
-36.19981833,-54.62203000
-36.15981833,-54.62203000
-36.11981833,-56.38600000
-36.07981833,-59.91394000
-36.03981833,-59.91394000
-35.99981833,-61.67791000
-35.95981833,-63.44188000
-35.91981833,-66.96982000
-35.87981833,-66.96982000
-35.83981833,-68.73379000
-35.79981833,-70.49776000
-35.75981833,-72.26173000
-35.71981834,-75.78967000
-35.67981834,-75.78967000
-35.63981834,-77.55363000
-35.59981834,-77.55363000
-35.55981834,-81.08157000
-35.51981834,-82.85165000
-35.47981834,-82.85165000
-35.43981834,-84.61562000
-35.39981834,-86.37959000
-35.35981834,-88.14356000
-35.31981834,-89.90753000
-35.27981834,-91.67150000
-35.23981834,-91.67150000
-35.19981834,-93.43547000
-35.15981834,-96.96341000
-35.11981834,-96.96341000
-35.07981834,-98.72738000
-35.03981834,-102.25530000
-34.99981834,-102.25530000
-34.95981834,-104.01930000
-34.91981834,-104.01930000
-34.87981834,-105.78330000
-34.83981834,-109.31120000
-34.79981834,-111.08130000
-34.75981834,-111.08130000
-34.71981834,-111.08130000
-34.67981834,-112.84520000
-34.63981834,-116.37320000
-34.59981834,-116.37320000
-34.55981834,-118.13720000
-34.51981834,-118.13720000
-34.47981834,-119.90110000
-34.43981834,-125.19300000
-34.39981834,-121.66510000
-34.35981834,-125.19300000
-34.31981834,-126.95700000
-34.27981834,-126.95700000
-34.23981834,-128.72100000
-34.19981834,-130.48490000
-34.15981834,-132.24890000
-34.11981834,-132.24890000
-34.07981835,-132.24890000
-34.03981835,-134.01290000
-33.99981835,-135.77680000
-33.95981835,-135.77680000
-33.91981835,-139.31090000
-33.87981835,-139.31090000
-33.83981835,-139.31090000
-33.79981835,-141.07490000
-33.75981835,-141.07490000
-33.71981835,-144.60280000
-33.67981835,-144.60280000
-33.63981835,-146.36680000
-33.59981835,-146.36680000
-33.55981835,-148.13070000
-33.51981835,-148.13070000
-33.47981835,-148.13070000
-33.43981835,-151.65870000
-33.39981835,-151.65870000
-33.35981835,-153.42260000
-33.31981835,-153.42260000
-33.27981835,-153.42260000
-33.23981835,-155.18660000
-33.19981835,-155.18660000
-33.15981835,-156.95060000
-33.11981835,-158.71460000
-33.07981835,-160.47850000
-33.03981835,-160.47850000
-32.99981835,-160.47850000
-32.95981835,-160.47850000
-32.91981835,-160.47850000
-32.87981835,-162.24250000
-32.83981835,-164.00650000
-32.79981835,-164.00650000
-32.75981835,-164.00650000
-32.71981835,-165.77040000
-32.67981835,-165.77040000
-32.63981835,-167.54050000
-32.59981835,-167.54050000
-32.55981835,-167.54050000
-32.51981835,-167.54050000
-32.47981835,-169.30450000
-32.43981836,-169.30450000
-32.39981836,-171.06850000
-32.35981836,-171.06850000
-32.31981836,-171.06850000
-32.27981836,-172.83240000
-32.23981836,-172.83240000
-32.19981836,-174.59640000
-32.15981836,-174.59640000
-32.11981836,-174.59640000
-32.07981836,-174.59640000
-32.03981836,-174.59640000
-31.99981836,-174.59640000
-31.95981836,-174.59640000
-31.91981836,-176.36040000
-31.87981836,-174.59640000
-31.83981836,-174.59640000
-31.79981836,-176.36040000
-31.75981836,-176.36040000
-31.71981836,-176.36040000
-31.67981836,-176.36040000
-31.63981836,-178.12430000
-31.59981836,-176.36040000
-31.55981836,-179.88830000
-31.51981836,-178.12430000
-31.47981836,-178.12430000
-31.43981836,-178.12430000
-31.39981836,-178.12430000
-31.35981836,-178.12430000
-31.31981836,-179.88830000
-31.27981836,-179.88830000
-31.23981836,-179.88830000
-31.19981836,-179.88830000
-31.15981836,-179.88830000
-31.11981836,-178.12430000
-31.07981836,-178.12430000
-31.03981836,-179.88830000
-30.99981836,-178.12430000
-30.95981836,-179.88830000
-30.91981836,-178.12430000
-30.87981836,-178.12430000
-30.83981836,-178.12430000
-30.79981837,-178.12430000
-30.75981837,-178.12430000
-30.71981837,-176.36040000
-30.67981837,-176.36040000
-30.63981837,-176.36040000
-30.59981837,-178.12430000
-30.55981837,-176.36040000
-30.51981837,-176.36040000
-30.47981837,-176.36040000
-30.43981837,-174.59640000
-30.39981837,-174.59640000
-30.35981837,-174.59640000
-30.31981837,-174.59640000
-30.27981837,-174.59640000
-30.23981837,-174.59640000
-30.19981837,-174.59640000
-30.15981837,-172.83240000
-30.11981837,-172.83240000
-30.07981837,-174.59640000
-30.03981837,-172.83240000
-29.99981837,-171.06850000
-29.95981837,-169.30450000
-29.91981837,-169.30450000
-29.87981837,-169.30450000
-29.83981837,-169.30450000
-29.79981837,-167.54050000
-29.75981837,-167.54050000
-29.71981837,-167.54050000
-29.67981837,-167.54050000
-29.63981837,-165.77040000
-29.59981837,-165.77040000
-29.55981837,-165.77040000
-29.51981837,-164.00650000
-29.47981837,-162.24250000
-29.43981837,-162.24250000
-29.39981837,-160.47850000
-29.35981837,-160.47850000
-29.31981837,-160.47850000
-29.27981837,-160.47850000
-29.23981837,-156.95060000
-29.19981837,-156.95060000
-29.15981838,-155.18660000
-29.11981838,-155.18660000
-29.07981838,-153.42260000
-29.03981838,-153.42260000
-28.99981838,-153.42260000
-28.95981838,-153.42260000
-28.91981838,-151.65870000
-28.87981838,-149.89470000
-28.83981838,-148.13070000
-28.79981838,-148.13070000
-28.75981838,-146.36680000
-28.71981838,-146.36680000
-28.67981838,-144.60280000
-28.63981838,-144.60280000
-28.59981838,-142.83880000
-28.55981838,-141.07490000
-28.51981838,-141.07490000
-28.47981838,-139.31090000
-28.43981838,-139.31090000
-28.39981838,-137.54080000
-28.35981838,-135.77680000
-28.31981838,-134.01290000
-28.27981838,-134.01290000
-28.23981838,-132.24890000
-28.19981838,-132.24890000
-28.15981838,-130.48490000
-28.11981838,-128.72100000
-28.07981838,-126.95700000
-28.03981838,-125.19300000
-27.99981838,-125.19300000
-27.95981838,-123.42910000
-27.91981838,-123.42910000
-27.87981838,-119.90110000
-27.83981838,-119.90110000
-27.79981838,-118.13720000
-27.75981838,-118.13720000
-27.71981838,-116.37320000
-27.67981838,-112.84520000
-27.63981838,-114.60920000
-27.59981838,-112.84520000
-27.55981838,-107.54720000
-27.51981839,-109.31120000
-27.47981839,-107.54720000
-27.43981839,-105.78330000
-27.39981839,-104.01930000
-27.35981839,-104.01930000
-27.31981839,-100.49130000
-27.27981839,-98.72738000
-27.23981839,-96.96341000
-27.19981839,-96.96341000
-27.15981839,-95.19944000
-27.11981839,-93.43547000
-27.07981839,-91.67150000
-27.03981839,-89.90753000
-26.99981839,-89.90753000
-26.95981839,-88.14356000
-26.91981839,-84.61562000
-26.87981839,-82.85165000
-26.83981839,-82.85165000
-26.79981839,-81.08157000
-26.75981839,-79.31760000
-26.71981839,-77.55363000
-26.67981839,-75.78967000
-26.63981839,-74.02570000
-26.59981839,-72.26173000
-26.55981839,-70.49776000
-26.51981839,-68.73379000
-26.47981839,-68.73379000
-26.43981839,-65.20585000
-26.39981839,-63.44188000
-26.35981839,-61.67791000
-26.31981839,-61.67791000
-26.27981839,-59.91394000
-26.23981839,-56.38600000
-26.19981839,-54.62203000
-26.15981839,-54.62203000
-26.11981839,-52.85195000
-26.07981839,-51.08798000
-26.03981839,-47.56004000
-25.99981839,-47.56004000
-25.95981839,-45.79607000
-25.91981839,-44.03210000
-25.87981839,-40.50417000
-25.83981840,-40.50417000
-25.79981840,-38.74020000
-25.75981840,-36.97623000
-25.71981840,-35.21225000
-25.67981840,-33.44828000
-25.63981840,-31.68431000
-25.59981840,-28.15638000
-25.55981840,-28.15638000
-25.51981840,-26.39241000
-25.47981840,-24.62233000
-25.43981840,-21.09439000
-25.39981840,-21.09439000
-25.35981840,-19.33042000
-25.31981840,-17.56645000
-25.27981840,-14.03851000
-25.23981840,-12.27454000
-25.19981840,-12.27454000
-25.15981840,-8.74660500
-25.11981840,-6.98263500
-25.07981840,-5.21866500
-25.03981840,-5.21866500
-24.99981840,-3.45469500
-24.95981840,0.07324442
-24.91981840,1.83721400
-24.87981840,1.83721400
-24.83981840,3.60118400
-24.79981840,7.12912400
-24.75981840,8.89309300
-24.71981840,10.65706000
-24.67981840,12.42103000
-24.63981840,14.18500000
-24.59981840,15.94897000
-24.55981840,17.71294000
-24.51981840,19.47691000
-24.47981840,21.24088000
-24.43981840,23.00485000
-24.39981840,24.76882000
-24.35981840,26.53279000
-24.31981840,28.29676000
-24.27981840,30.06684000
-24.23981840,30.06684000
-24.19981841,33.59477000
-24.15981841,35.35874000
-24.11981841,37.12271000
-24.07981841,38.88668000
-24.03981841,38.88668000
-23.99981841,42.41463000
-23.95981841,44.17860000
-23.91981841,45.94257000
-23.87981841,47.70654000
-23.83981841,49.47050000
-23.79981841,51.23447000
-23.75981841,52.99844000
-23.71981841,56.52638000
-23.67981841,56.52638000
-23.63981841,58.29646000
-23.59981841,58.29646000
-23.55981841,60.06042000
-23.51981841,63.58836000
-23.47981841,65.35233000
-23.43981841,65.35233000
-23.39981841,68.88028000
-23.35981841,70.64425000
-23.31981841,72.40822000
-23.27981841,72.40822000
-23.23981841,74.17219000
-23.19981841,75.93616000
-23.15981841,77.70013000
-23.11981841,79.46410000
-23.07981841,81.22807000
-23.03981841,82.99203000
-22.99981841,84.75600000
-22.95981841,86.52608000
-22.91981841,86.52608000
-22.87981841,88.29005000
-22.83981841,91.81799000
-22.79981841,91.81799000
-22.75981841,93.58195000
-22.71981841,95.34592000
-22.67981841,95.34592000
-22.63981841,98.87386000
-22.59981841,100.63780000
-22.55981842,100.63780000
-22.51981842,102.40180000
-22.47981842,104.16580000
-22.43981842,105.92970000
-22.39981842,107.69370000
-22.35981842,109.45770000
-22.31981842,107.69370000
-22.27981842,112.98560000
-22.23981842,114.75570000
-22.19981842,114.75570000
-22.15981842,116.51970000
-22.11981842,116.51970000
-22.07981842,120.04760000
-22.03981842,120.04760000
-21.99981842,121.81160000
-21.95981842,121.81160000
-21.91981842,123.57550000
-21.87981842,127.10350000
-21.83981842,127.10350000
-21.79981842,128.86740000
-21.75981842,128.86740000
-21.71981842,130.63140000
-21.67981842,132.39540000
-21.63981842,134.15940000
-21.59981842,134.15940000
-21.55981842,135.92330000
-21.51981842,135.92330000
-21.47981842,137.68730000
-21.43981842,139.45130000
-21.39981842,141.21520000
-21.35981842,142.98530000
-21.31981842,142.98530000
-21.27981842,142.98530000
-21.23981842,144.74930000
-21.19981842,146.51330000
-21.15981842,146.51330000
-21.11981842,148.27720000
-21.07981842,148.27720000
-21.03981842,150.04120000
-20.99981842,151.80520000
-20.95981842,151.80520000
-20.91981843,151.80520000
-20.87981843,151.80520000
-20.83981843,155.33310000
-20.79981843,155.33310000
-20.75981843,157.09710000
-20.71981843,157.09710000
-20.67981843,157.09710000
-20.63981843,158.86110000
-20.59981843,160.62500000
-20.55981843,160.62500000
-20.51981843,162.38900000
-20.47981843,162.38900000
-20.43981843,164.15300000
-20.39981843,164.15300000
-20.35981843,164.15300000
-20.31981843,165.91690000
-20.27981843,165.91690000
-20.23981843,167.68090000
-20.19981843,167.68090000
-20.15981843,169.44490000
-20.11981843,169.44490000
-20.07981843,169.44490000
-20.03981843,171.21490000
-19.99981843,171.21490000
-19.95981843,171.21490000
-19.91981843,171.21490000
-19.87981843,172.97890000
-19.83981843,172.97890000
-19.79981843,172.97890000
-19.75981843,174.74290000
-19.71981843,174.74290000
-19.67981843,174.74290000
-19.63981843,176.50690000
-19.59981843,176.50690000
-19.55981843,176.50690000
-19.51981843,176.50690000
-19.47981843,176.50690000
-19.43981843,180.03480000
-19.39981843,178.27080000
-19.35981843,176.50690000
-19.31981843,178.27080000
-19.27981844,178.27080000
-19.23981844,178.27080000
-19.19981844,178.27080000
-19.15981844,178.27080000
-19.11981844,180.03480000
-19.07981844,178.27080000
-19.03981844,180.03480000
-18.99981844,178.27080000
-18.95981844,180.03480000
-18.91981844,180.03480000
-18.87981844,180.03480000
-18.83981844,180.03480000
-18.79981844,180.03480000
-18.75981844,180.03480000
-18.71981844,180.03480000
-18.67981844,180.03480000
-18.63981844,180.03480000
-18.59981844,180.03480000
-18.55981844,180.03480000
-18.51981844,180.03480000
-18.47981844,180.03480000
-18.43981844,180.03480000
-18.39981844,178.27080000
-18.35981844,178.27080000
-18.31981844,178.27080000
-18.27981844,180.03480000
-18.23981844,178.27080000
-18.19981844,178.27080000
-18.15981844,178.27080000
-18.11981844,178.27080000
-18.07981844,178.27080000
-18.03981844,178.27080000
-17.99981844,178.27080000
-17.95981844,178.27080000
-17.91981844,178.27080000
-17.87981844,176.50690000
-17.83981844,176.50690000
-17.79981844,176.50690000
-17.75981844,176.50690000
-17.71981844,176.50690000
-17.67981844,176.50690000
-17.63981845,174.74290000
-17.59981845,174.74290000
-17.55981845,172.97890000
-17.51981845,172.97890000
-17.47981845,172.97890000
-17.43981845,171.21490000
-17.39981845,171.21490000
-17.35981845,171.21490000
-17.31981845,171.21490000
-17.27981845,169.44490000
-17.23981845,169.44490000
-17.19981845,169.44490000
-17.15981845,169.44490000
-17.11981845,165.91690000
-17.07981845,165.91690000
-17.03981845,164.15300000
-16.99981845,164.15300000
-16.95981845,164.15300000
-16.91981845,164.15300000
-16.87981845,162.38900000
-16.83981845,162.38900000
-16.79981845,162.38900000
-16.75981845,158.86110000
-16.71981845,158.86110000
-16.67981845,157.09710000
-16.63981845,157.09710000
-16.59981845,157.09710000
-16.55981845,155.33310000
-16.51981845,155.33310000
-16.47981845,155.33310000
-16.43981845,153.56910000
-16.39981845,151.80520000
-16.35981845,150.04120000
-16.31981845,150.04120000
-16.27981845,150.04120000
-16.23981845,148.27720000
-16.19981845,146.51330000
-16.15981845,146.51330000
-16.11981845,144.74930000
-16.07981845,142.98530000
-16.03981845,142.98530000
-15.99981846,141.21520000
-15.95981846,141.21520000
-15.91981846,137.68730000
-15.87981846,137.68730000
-15.83981846,135.92330000
-15.79981846,135.92330000
-15.75981846,134.15940000
-15.71981846,134.15940000
-15.67981846,132.39540000
-15.63981846,130.63140000
-15.59981846,128.86740000
-15.55981846,128.86740000
-15.51981846,128.86740000
-15.47981846,127.10350000
-15.43981846,123.57550000
-15.39981846,123.57550000
-15.35981846,121.81160000
-15.31981846,120.04760000
-15.27981846,118.28360000
-15.23981846,116.51970000
-15.19981846,116.51970000
-15.15981846,114.75570000
-15.11981846,112.98560000
-15.07981846,112.98560000
-15.03981846,109.45770000
-14.99981846,107.69370000
-14.95981846,107.69370000
-14.91981846,105.92970000
-14.87981846,105.92970000
-14.83981846,102.40180000
-14.79981846,100.63780000
-14.75981846,100.63780000
-14.71981846,98.87386000
-14.67981846,97.10989000
-14.63981846,95.34592000
-14.59981846,93.58195000
-14.55981846,91.81799000
-14.51981846,91.81799000
-14.47981846,90.05402000
-14.43981846,88.29005000
-14.39981846,86.52608000
-14.35981846,84.75600000
-14.31981847,82.99203000
-14.27981847,81.22807000
-14.23981847,79.46410000
-14.19981847,77.70013000
-14.15981847,77.70013000
-14.11981847,75.93616000
-14.07981847,72.40822000
-14.03981847,72.40822000
-13.99981847,70.64425000
-13.95981847,67.11631000
-13.91981847,65.35233000
-13.87981847,65.35233000
-13.83981847,63.58836000
-13.79981847,61.82440000
-13.75981847,60.06042000
-13.71981847,58.29646000
-13.67981847,56.52638000
-13.63981847,56.52638000
-13.59981847,52.99844000
-13.55981847,51.23447000
-13.51981847,49.47050000
-13.47981847,49.47050000
-13.43981847,45.94257000
-13.39981847,44.17860000
-13.35981847,42.41463000
-13.31981847,40.65065000
-13.27981847,38.88668000
-13.23981847,37.12271000
-13.19981847,35.35874000
-13.15981847,33.59477000
-13.11981847,31.83080000
-13.07981847,30.06684000
-13.03981847,28.29676000
-12.99981847,28.29676000
-12.95981847,24.76882000
-12.91981847,23.00485000
-12.87981847,21.24088000
-12.83981847,21.24088000
-12.79981847,15.94897000
-12.75981847,15.94897000
-12.71981847,15.94897000
-12.67981848,12.42103000
-12.63981848,8.89309300
-12.59981848,8.89309300
-12.55981848,7.12912400
-12.51981848,5.36515400
-12.47981848,3.60118400
-12.43981848,1.83721400
-12.39981848,0.07324442
-12.35981848,-3.45469500
-12.31981848,-5.21866500
-12.27981848,-5.21866500
-12.23981848,-6.98263500
-12.19981848,-8.74660500
-12.15981848,-10.51057000
-12.11981848,-14.03851000
-12.07981848,-14.03851000
-12.03981848,-17.56645000
-11.99981848,-19.33042000
-11.95981848,-19.33042000
-11.91981848,-21.09439000
-11.87981848,-24.62233000
-11.83981848,-26.39241000
-11.79981848,-26.39241000
-11.75981848,-29.92035000
-11.71981848,-31.68431000
-11.67981848,-33.44828000
-11.63981848,-35.21225000
-11.59981848,-36.97623000
-11.55981848,-38.74020000
-11.51981848,-40.50417000
-11.47981848,-40.50417000
-11.43981848,-42.26814000
-11.39981848,-45.79607000
-11.35981848,-47.56004000
-11.31981848,-49.32401000
-11.27981848,-51.08798000
-11.23981848,-52.85195000
-11.19981848,-54.62203000
-11.15981848,-54.62203000
-11.11981848,-56.38600000
-11.07981848,-59.91394000
-11.03981849,-61.67791000
-10.99981849,-61.67791000
-10.95981849,-63.44188000
-10.91981849,-66.96982000
-10.87981849,-68.73379000
-10.83981849,-68.73379000
-10.79981849,-70.49776000
-10.75981849,-74.02570000
-10.71981849,-74.02570000
-10.67981849,-75.78967000
-10.63981849,-77.55363000
-10.59981849,-77.55363000
-10.55981849,-81.08157000
-10.51981849,-82.85165000
-10.47981849,-82.85165000
-10.43981849,-84.61562000
-10.39981849,-88.14356000
-10.35981849,-89.90753000
-10.31981849,-89.90753000
-10.27981849,-91.67150000
-10.23981849,-93.43547000
-10.19981849,-95.19944000
-10.15981849,-96.96341000
-10.11981849,-96.96341000
-10.07981849,-98.72738000
-10.03981849,-102.25530000
-9.99981849,-104.01930000
-9.95981849,-104.01930000
-9.91981849,-105.78330000
-9.87981849,-105.78330000
-9.83981849,-109.31120000
-9.79981849,-111.08130000
-9.75981849,-111.08130000
-9.71981849,-112.84520000
-9.67981849,-114.60920000
-9.63981849,-116.37320000
-9.59981849,-116.37320000
-9.55981849,-118.13720000
-9.51981849,-119.90110000
-9.47981849,-119.90110000
-9.43981849,-121.66510000
-9.39981850,-123.42910000
-9.35981850,-125.19300000
-9.31981850,-125.19300000
-9.27981850,-126.95700000
-9.23981850,-128.72100000
-9.19981850,-130.48490000
-9.15981850,-132.24890000
-9.11981850,-132.24890000
-9.07981850,-134.01290000
-9.03981850,-134.01290000
-8.99981850,-135.77680000
-8.95981850,-137.54080000
-8.91981850,-139.31090000
-8.87981850,-139.31090000
-8.83981850,-139.31090000
-8.79981850,-141.07490000
-8.75981850,-142.83880000
-8.71981850,-144.60280000
-8.67981850,-144.60280000
-8.63981850,-146.36680000
-8.59981850,-146.36680000
-8.55981850,-148.13070000
-8.51981850,-148.13070000
-8.47981850,-149.89470000
-8.43981850,-151.65870000
-8.39981850,-151.65870000
-8.35981850,-153.42260000
-8.31981850,-153.42260000
-8.27981850,-153.42260000
-8.23981850,-155.18660000
-8.19981850,-155.18660000
-8.15981850,-155.18660000
-8.11981850,-158.71460000
-8.07981850,-158.71460000
-8.03981850,-160.47850000
-7.99981850,-160.47850000
-7.95981850,-162.24250000
-7.91981850,-162.24250000
-7.87981850,-162.24250000
-7.83981850,-164.00650000
-7.79981850,-165.77040000
-7.75981851,-165.77040000
-7.71981851,-165.77040000
-7.67981851,-167.54050000
-7.63981851,-167.54050000
-7.59981851,-165.77040000
-7.55981851,-167.54050000
-7.51981851,-169.30450000
-7.47981851,-169.30450000
-7.43981851,-169.30450000
-7.39981851,-169.30450000
-7.35981851,-171.06850000
-7.31981851,-172.83240000
-7.27981851,-172.83240000
-7.23981851,-172.83240000
-7.19981851,-172.83240000
-7.15981851,-174.59640000
-7.11981851,-174.59640000
-7.07981851,-174.59640000
-7.03981851,-174.59640000
-6.99981851,-174.59640000
-6.95981851,-176.36040000
-6.91981851,-176.36040000
-6.87981851,-176.36040000
-6.83981851,-176.36040000
-6.79981851,-176.36040000
-6.75981851,-176.36040000
-6.71981851,-176.36040000
-6.67981851,-176.36040000
-6.63981851,-178.12430000
-6.59981851,-179.88830000
-6.55981851,-178.12430000
-6.51981851,-178.12430000
-6.47981851,-178.12430000
-6.43981851,-178.12430000
-6.39981851,-179.88830000
-6.35981851,-178.12430000
-6.31981851,-178.12430000
-6.27981851,-178.12430000
-6.23981851,-178.12430000
-6.19981851,-179.88830000
-6.15981851,-178.12430000
-6.11981852,-179.88830000
-6.07981852,-179.88830000
-6.03981852,-178.12430000
-5.99981852,-179.88830000
-5.95981852,-178.12430000
-5.91981852,-178.12430000
-5.87981852,-176.36040000
-5.83981852,-178.12430000
-5.79981852,-178.12430000
-5.75981852,-176.36040000
-5.71981852,-178.12430000
-5.67981852,-176.36040000
-5.63981852,-176.36040000
-5.59981852,-176.36040000
-5.55981852,-176.36040000
-5.51981852,-176.36040000
-5.47981852,-176.36040000
-5.43981852,-176.36040000
-5.39981852,-174.59640000
-5.35981852,-174.59640000
-5.31981852,-174.59640000
-5.27981852,-174.59640000
-5.23981852,-174.59640000
-5.19981852,-174.59640000
-5.15981852,-172.83240000
-5.11981852,-172.83240000
-5.07981852,-172.83240000
-5.03981852,-172.83240000
-4.99981852,-171.06850000
-4.95981852,-169.30450000
-4.91981852,-171.06850000
-4.87981852,-169.30450000
-4.83981852,-169.30450000
-4.79981852,-167.54050000
-4.75981852,-167.54050000
-4.71981852,-169.30450000
-4.67981852,-165.77040000
-4.63981852,-165.77040000
-4.59981852,-165.77040000
-4.55981852,-164.00650000
-4.51981852,-164.00650000
-4.47981853,-164.00650000
-4.43981853,-162.24250000
-4.39981853,-160.47850000
-4.35981853,-160.47850000
-4.31981853,-160.47850000
-4.27981853,-160.47850000
-4.23981853,-158.71460000
-4.19981853,-158.71460000
-4.15981853,-155.18660000
-4.11981853,-155.18660000
-4.07981853,-155.18660000
-4.03981853,-153.42260000
-3.99981853,-153.42260000
-3.95981853,-153.42260000
-3.91981853,-151.65870000
-3.87981853,-149.89470000
-3.83981853,-148.13070000
-3.79981853,-148.13070000
-3.75981853,-146.36680000
-3.71981853,-146.36680000
-3.67981853,-144.60280000
-3.63981853,-144.60280000
-3.59981853,-141.07490000
-3.55981853,-141.07490000
-3.51981853,-141.07490000
-3.47981853,-139.31090000
-3.43981853,-139.31090000
-3.39981853,-135.77680000
-3.35981853,-135.77680000
-3.31981853,-134.01290000
-3.27981853,-134.01290000
-3.23981853,-132.24890000
-3.19981853,-132.24890000
-3.15981853,-130.48490000
-3.11981853,-128.72100000
-3.07981853,-126.95700000
-3.03981853,-125.19300000
-2.99981853,-125.19300000
-2.95981853,-125.19300000
-2.91981853,-121.66510000
-2.87981853,-119.90110000
-2.83981853,-119.90110000
-2.79981854,-118.13720000
-2.75981854,-118.13720000
-2.71981854,-116.37320000
-2.67981854,-112.84520000
-2.63981854,-112.84520000
-2.59981854,-111.08130000
-2.55981854,-111.08130000
-2.51981854,-109.31120000
-2.47981854,-105.78330000
-2.43981854,-105.78330000
-2.39981854,-104.01930000
-2.35981854,-104.01930000
-2.31981854,-102.25530000
-2.27981854,-98.72738000
-2.23981854,-98.72738000
-2.19981854,-96.96341000
-2.15981854,-95.19944000
-2.11981854,-93.43547000
-2.07981854,-91.67150000
-2.03981854,-89.90753000
-1.99981854,-88.14356000
-1.95981854,-88.14356000
-1.91981854,-84.61562000
-1.87981854,-82.85165000
-1.83981854,-82.85165000
-1.79981854,-81.08157000
-1.75981854,-77.55363000
-1.71981854,-77.55363000
-1.67981854,-75.78967000
-1.63981854,-74.02570000
-1.59981854,-72.26173000
-1.55981854,-70.49776000
-1.51981854,-68.73379000
-1.47981854,-68.73379000
-1.43981854,-66.96982000
-1.39981854,-63.44188000
-1.35981854,-61.67791000
-1.31981854,-61.67791000
-1.27981854,-59.91394000
-1.23981854,-56.38600000
-1.19981854,-54.62203000
-1.15981855,-54.62203000
-1.11981855,-52.85195000
-1.07981855,-51.08798000
-1.03981855,-49.32401000
-0.99981855,-47.56004000
-0.95981855,-45.79607000
-0.91981855,-44.03210000
-0.87981855,-42.26814000
-0.83981855,-40.50417000
-0.79981855,-38.74020000
-0.75981855,-36.97623000
-0.71981855,-35.21225000
-0.67981855,-33.44828000
-0.63981855,-31.68431000
-0.59981855,-29.92035000
-0.55981855,-28.15638000
-0.51981855,-26.39241000
-0.47981855,-24.62233000
-0.43981855,-21.09439000
-0.39981855,-21.09439000
-0.35981855,-19.33042000
-0.31981855,-17.56645000
-0.27981855,-15.80248000
-0.23981855,-14.03851000
-0.19981855,-12.27454000
-0.15981855,-8.74660500
-0.11981855,-6.98263500
-0.07981855,-5.21866500
-0.03981855,-5.21866500
0.00018145,-1.69072500
0.04018145,0.07324442
0.08018145,1.83721400
0.12018145,1.83721400
0.16018145,5.36515400
0.20018145,7.12912400
0.24018145,8.89309300
0.28018145,8.89309300
0.32018145,10.65706000
0.36018145,14.18500000
0.40018145,15.94897000
0.44018145,17.71294000
0.48018144,19.47691000
0.52018144,21.24088000
0.56018144,23.00485000
0.60018144,24.76882000
0.64018144,26.53279000
0.68018144,28.29676000
0.72018144,30.06684000
0.76018144,31.83080000
0.80018144,35.35874000
0.84018144,35.35874000
0.88018144,37.12271000
0.92018144,38.88668000
0.96018144,40.65065000
1.00018144,42.41463000
1.04018144,44.17860000
1.08018144,44.17860000
1.12018144,47.70654000
1.16018144,49.47050000
1.20018144,51.23447000
1.24018144,52.99844000
1.28018144,54.76241000
1.32018144,56.52638000
1.36018144,58.29646000
1.40018144,58.29646000
1.44018144,61.82440000
1.48018144,63.58836000
1.52018144,63.58836000
1.56018144,65.35233000
1.60018144,67.11631000
1.64018144,68.88028000
1.68018144,72.40822000
1.72018144,72.40822000
1.76018144,74.17219000
1.80018144,77.70013000
1.84018144,77.70013000
1.88018144,79.46410000
1.92018144,81.22807000
1.96018144,81.22807000
2.00018144,84.75600000
2.04018144,84.75600000
2.08018144,86.52608000
2.12018143,91.81799000
2.16018143,90.05402000
2.20018143,91.81799000
2.24018143,93.58195000
2.28018143,95.34592000
2.32018143,97.10989000
2.36018143,98.87386000
2.40018143,100.63780000
2.44018143,100.63780000
2.48018143,102.40180000
2.52018143,105.92970000
2.56018143,105.92970000
2.60018143,107.69370000
2.64018143,109.45770000
2.68018143,109.45770000
2.72018143,111.22170000
2.76018143,112.98560000
2.80018143,114.75570000
2.84018143,114.75570000
2.88018143,116.51970000
2.92018143,120.04760000
2.96018143,120.04760000
3.00018143,121.81160000
3.04018143,121.81160000
3.08018143,123.57550000
3.12018143,123.57550000
3.16018143,127.10350000
3.20018143,127.10350000
3.24018143,128.86740000
3.28018143,130.63140000
3.32018143,132.39540000
3.36018143,132.39540000
3.40018143,134.15940000
3.44018143,135.92330000
3.48018143,135.92330000
3.52018143,137.68730000
3.56018143,139.45130000
3.60018143,141.21520000
3.64018143,141.21520000
3.68018143,142.98530000
3.72018143,142.98530000
3.76018142,142.98530000
3.80018142,146.51330000
3.84018142,148.27720000
3.88018142,148.27720000
3.92018142,150.04120000
3.96018142,150.04120000
4.00018142,150.04120000
4.04018142,150.04120000
4.08018142,151.80520000
4.12018142,153.56910000
4.16018142,155.33310000
4.20018142,155.33310000
4.24018142,157.09710000
4.28018142,157.09710000
4.32018142,157.09710000
4.36018142,158.86110000
4.40018142,158.86110000
4.44018142,162.38900000
4.48018142,162.38900000
4.52018142,162.38900000
4.56018142,164.15300000
4.60018142,164.15300000
4.64018142,164.15300000
4.68018142,165.91690000
4.72018142,165.91690000
4.76018142,165.91690000
4.80018142,167.68090000
4.84018142,167.68090000
4.88018142,169.44490000
4.92018142,169.44490000
4.96018142,169.44490000
5.00018142,169.44490000
5.04018142,171.21490000
5.08018142,171.21490000
5.12018142,171.21490000
5.16018142,172.97890000
5.20018142,172.97890000
5.24018142,172.97890000
5.28018142,174.74290000
5.32018142,174.74290000
5.36018142,176.50690000
5.40018141,176.50690000
5.44018141,176.50690000
5.48018141,176.50690000
5.52018141,176.50690000
5.56018141,178.27080000
5.60018141,176.50690000
5.64018141,178.27080000
5.68018141,178.27080000
5.72018141,178.27080000
5.76018141,178.27080000
5.80018141,178.27080000
5.84018141,180.03480000
5.88018141,178.27080000
5.92018141,180.03480000
5.96018141,180.03480000
6.00018141,178.27080000
6.04018141,178.27080000
6.08018141,178.27080000
6.12018141,180.03480000
6.16018141,180.03480000
6.20018141,180.03480000
6.24018141,178.27080000
6.28018141,180.03480000
6.32018141,180.03480000
6.36018141,180.03480000
6.40018141,180.03480000
6.44018141,180.03480000
6.48018141,180.03480000
6.52018141,180.03480000
6.56018141,180.03480000
6.60018141,178.27080000
6.64018141,180.03480000
6.68018141,178.27080000
6.72018141,178.27080000
6.76018141,178.27080000
6.80018141,178.27080000
6.84018141,178.27080000
6.88018141,178.27080000
6.92018141,178.27080000
6.96018141,178.27080000
7.00018141,178.27080000
7.04018140,178.27080000
7.08018140,176.50690000
7.12018140,178.27080000
7.16018140,176.50690000
7.20018140,176.50690000
7.24018140,176.50690000
7.28018140,174.74290000
7.32018140,176.50690000
7.36018140,172.97890000
7.40018140,171.21490000
7.44018140,174.74290000
7.48018140,172.97890000
7.52018140,171.21490000
7.56018140,171.21490000
7.60018140,171.21490000
7.64018140,171.21490000
7.68018140,169.44490000
7.72018140,169.44490000
7.76018140,169.44490000
7.80018140,167.68090000
7.84018140,167.68090000
7.88018140,165.91690000
7.92018140,165.91690000
7.96018140,165.91690000
8.00018140,164.15300000
8.04018140,164.15300000
8.08018140,164.15300000
8.12018140,162.38900000
8.16018140,162.38900000
8.20018140,160.62500000
8.24018140,160.62500000
8.28018140,158.86110000
8.32018140,157.09710000
8.36018140,157.09710000
8.40018140,157.09710000
8.44018140,155.33310000
8.48018140,155.33310000
8.52018140,153.56910000
8.56018140,151.80520000
8.60018140,151.80520000
8.64018140,150.04120000
8.68018139,150.04120000
8.72018139,150.04120000
8.76018139,148.27720000
8.80018139,146.51330000
8.84018139,146.51330000
8.88018139,144.74930000
8.92018139,142.98530000
8.96018139,142.98530000
9.00018139,142.98530000
9.04018139,141.21520000
9.08018139,139.45130000
9.12018139,137.68730000
9.16018139,135.92330000
9.20018139,135.92330000
9.24018139,134.15940000
9.28018139,132.39540000
9.32018139,130.63140000
9.36018139,130.63140000
9.40018139,128.86740000
9.44018139,128.86740000
9.48018139,127.10350000
9.52018139,125.33950000
9.56018139,123.57550000
9.60018139,121.81160000
9.64018139,121.81160000
9.68018139,120.04760000
9.72018139,120.04760000
9.76018139,118.28360000
9.80018139,114.75570000
9.84018139,114.75570000
9.88018139,112.98560000
9.92018139,112.98560000
9.96018139,109.45770000
10.00018139,109.45770000
10.04018139,107.69370000
10.08018139,105.92970000
10.12018139,104.16580000
10.16018139,100.63780000
10.20018139,104.16580000
10.24018139,100.63780000
10.28018139,98.87386000
10.32018139,95.34592000
10.36018138,95.34592000
10.40018138,93.58195000
10.44018138,91.81799000
10.48018138,90.05402000
10.52018138,88.29005000
10.56018138,86.52608000
10.60018138,86.52608000
10.64018138,84.75600000
10.68018138,81.22807000
10.72018138,81.22807000
10.76018138,79.46410000
10.80018138,77.70013000
10.84018138,77.70013000
10.88018138,74.17219000
10.92018138,72.40822000
10.96018138,72.40822000
11.00018138,70.64425000
11.04018138,67.11631000
11.08018138,65.35233000
11.12018138,63.58836000
11.16018138,63.58836000
11.20018138,61.82440000
11.24018138,60.06042000
11.28018138,58.29646000
11.32018138,56.52638000
11.36018138,54.76241000
11.40018138,51.23447000
11.44018138,51.23447000
11.48018138,49.47050000
11.52018138,47.70654000
11.56018138,45.94257000
11.60018138,44.17860000
11.64018138,42.41463000
11.68018138,40.65065000
11.72018138,38.88668000
11.76018138,37.12271000
11.80018138,35.35874000
11.84018138,33.59477000
11.88018138,31.83080000
11.92018138,30.06684000
11.96018138,28.29676000
12.00018137,26.53279000
12.04018137,23.00485000
12.08018137,23.00485000
12.12018137,21.24088000
12.16018137,17.71294000
12.20018137,15.94897000
12.24018137,15.94897000
12.28018137,14.18500000
12.32018137,10.65706000
12.36018137,8.89309300
12.40018137,8.89309300
12.44018137,7.12912400
12.48018137,3.60118400
12.52018137,3.60118400
12.56018137,1.83721400
12.60018137,0.07324442
12.64018137,-1.69072500
12.68018137,-5.21866500
12.72018137,-5.21866500
12.76018137,-6.98263500
12.80018137,-8.74660500
12.84018137,-12.27454000
12.88018137,-14.03851000
12.92018137,-14.03851000
12.96018137,-17.56645000
13.00018137,-19.33042000
13.04018137,-21.09439000
13.08018137,-22.85836000
13.12018137,-24.62233000
13.16018137,-26.39241000
13.20018137,-26.39241000
13.24018137,-28.15638000
13.28018137,-31.68431000
13.32018137,-33.44828000
13.36018137,-35.21225000
13.40018137,-35.21225000
13.44018137,-38.74020000
13.48018137,-40.50417000
13.52018137,-40.50417000
13.56018137,-42.26814000
13.60018137,-45.79607000
13.64018136,-47.56004000
13.68018136,-49.32401000
13.72018136,-49.32401000
13.76018136,-52.85195000
13.80018136,-54.62203000
13.84018136,-54.62203000
13.88018136,-58.14997000
13.92018136,-59.91394000
13.96018136,-61.67791000
14.00018136,-61.67791000
14.04018136,-63.44188000
14.08018136,-66.96982000
14.12018136,-68.73379000
14.16018136,-68.73379000
14.20018136,-70.49776000
14.24018136,-74.02570000
14.28018136,-74.02570000
14.32018136,-77.55363000
14.36018136,-77.55363000
14.40018136,-77.55363000
14.44018136,-81.08157000
14.48018136,-82.85165000
14.52018136,-82.85165000
14.56018136,-84.61562000
14.60018136,-88.14356000
14.64018136,-89.90753000
14.68018136,-89.90753000
14.72018136,-91.67150000
14.76018136,-93.43547000
14.80018136,-95.19944000
14.84018136,-96.96341000
14.88018136,-98.72738000
14.92018136,-98.72738000
14.96018136,-102.25530000
15.00018136,-102.25530000
15.04018136,-104.01930000
15.08018136,-105.78330000
15.12018136,-105.78330000
15.16018136,-109.31120000
15.20018136,-111.08130000
15.24018136,-111.08130000
15.28018135,-112.84520000
15.32018135,-112.84520000
15.36018135,-116.37320000
15.40018135,-118.13720000
15.44018135,-118.13720000
15.48018135,-119.90110000
15.52018135,-119.90110000
15.56018135,-123.42910000
15.60018135,-123.42910000
15.64018135,-125.19300000
15.68018135,-125.19300000
15.72018135,-126.95700000
15.76018135,-130.48490000
15.80018135,-130.48490000
15.84018135,-132.24890000
15.88018135,-132.24890000
15.92018135,-134.01290000
15.96018135,-134.01290000
16.00018135,-135.77680000
16.04018135,-137.54080000
16.08018135,-139.31090000
16.12018135,-139.31090000
16.16018135,-139.31090000
16.20018135,-141.07490000
16.24018135,-142.83880000
16.28018135,-144.60280000
16.32018135,-144.60280000
16.36018135,-146.36680000
16.40018135,-146.36680000
16.44018135,-148.13070000
16.48018135,-149.89470000
16.52018135,-149.89470000
16.56018135,-151.65870000
16.60018135,-153.42260000
16.64018135,-153.42260000
16.68018135,-153.42260000
16.72018135,-155.18660000
16.76018135,-155.18660000
16.80018135,-155.18660000
16.84018135,-155.18660000
16.88018135,-160.47850000
16.92018134,-158.71460000
16.96018134,-160.47850000
17.00018134,-160.47850000
17.04018134,-162.24250000
17.08018134,-162.24250000
17.12018134,-162.24250000
17.16018134,-162.24250000
17.20018134,-164.00650000
17.24018134,-165.77040000
17.28018134,-167.54050000
17.32018134,-167.54050000
17.36018134,-167.54050000
17.40018134,-167.54050000
17.44018134,-167.54050000
17.48018134,-169.30450000
17.52018134,-169.30450000
17.56018134,-169.30450000
17.60018134,-171.06850000
17.64018134,-171.06850000
17.68018134,-172.83240000
17.72018134,-172.83240000
17.76018134,-172.83240000
17.80018134,-174.59640000
17.84018134,-174.59640000
17.88018134,-174.59640000
17.92018134,-174.59640000
17.96018134,-174.59640000
18.00018134,-174.59640000
18.04018134,-176.36040000
18.08018134,-176.36040000
18.12018134,-176.36040000
18.16018134,-176.36040000
18.20018134,-176.36040000
18.24018134,-176.36040000
18.28018134,-176.36040000
18.32018134,-176.36040000
18.36018134,-178.12430000
18.40018134,-178.12430000
18.44018134,-178.12430000
18.48018134,-179.88830000
18.52018134,-178.12430000
18.56018133,-178.12430000
18.60018133,-178.12430000
18.64018133,-179.88830000
18.68018133,-178.12430000
18.72018133,-178.12430000
18.76018133,-179.88830000
18.80018133,-179.88830000
18.84018133,-179.88830000
18.88018133,-179.88830000
18.92018133,-179.88830000
18.96018133,-179.88830000
19.00018133,-179.88830000
19.04018133,-179.88830000
19.08018133,-179.88830000
19.12018133,-178.12430000
19.16018133,-178.12430000
19.20018133,-178.12430000
19.24018133,-178.12430000
19.28018133,-178.12430000
19.32018133,-176.36040000
19.36018133,-178.12430000
19.40018133,-176.36040000
19.44018133,-176.36040000
19.48018133,-176.36040000
19.52018133,-176.36040000
19.56018133,-176.36040000
19.60018133,-176.36040000
19.64018133,-174.59640000
19.68018133,-174.59640000
19.72018133,-174.59640000
19.76018133,-174.59640000
19.80018133,-174.59640000
19.84018133,-174.59640000
19.88018133,-172.83240000
19.92018133,-172.83240000
19.96018133,-172.83240000
20.00018133,-172.83240000
20.04018133,-171.06850000
20.08018133,-169.30450000
20.12018133,-169.30450000
20.16018133,-169.30450000
20.20018132,-169.30450000
20.24018132,-167.54050000
20.28018132,-167.54050000
20.32018132,-167.54050000
20.36018132,-165.77040000
20.40018132,-165.77040000
20.44018132,-164.00650000
20.48018132,-164.00650000
20.52018132,-164.00650000
20.56018132,-162.24250000
20.60018132,-160.47850000
20.64018132,-160.47850000
20.68018132,-160.47850000
20.72018132,-160.47850000
20.76018132,-158.71460000
20.80018132,-156.95060000
20.84018132,-155.18660000
20.88018132,-155.18660000
20.92018132,-153.42260000
20.96018132,-153.42260000
21.00018132,-153.42260000
21.04018132,-151.65870000
21.08018132,-151.65870000
21.12018132,-151.65870000
21.16018132,-148.13070000
21.20018132,-148.13070000
21.24018132,-148.13070000
21.28018132,-146.36680000
21.32018132,-144.60280000
21.36018132,-144.60280000
21.40018132,-142.83880000
21.44018132,-141.07490000
21.48018132,-141.07490000
21.52018132,-139.31090000
21.56018132,-139.31090000
21.60018132,-137.54080000
21.64018132,-135.77680000
21.68018132,-134.01290000
21.72018132,-134.01290000
21.76018132,-132.24890000
21.80018132,-132.24890000
21.84018132,-130.48490000
21.88018131,-128.72100000
21.92018131,-126.95700000
21.96018131,-125.19300000
22.00018131,-125.19300000
22.04018131,-123.42910000
22.08018131,-123.42910000
22.12018131,-119.90110000
22.16018131,-118.13720000
22.20018131,-118.13720000
22.24018131,-116.37320000
22.28018131,-116.37320000
22.32018131,-112.84520000
22.36018131,-112.84520000
22.40018131,-111.08130000
22.44018131,-111.08130000
22.48018131,-109.31120000
22.52018131,-107.54720000
22.56018131,-105.78330000
22.60018131,-104.01930000
22.64018131,-104.01930000
22.68018131,-102.25530000
22.72018131,-98.72738000
22.76018131,-96.96341000
22.80018131,-96.96341000
22.84018131,-95.19944000
22.88018131,-93.43547000
22.92018131,-91.67150000
22.96018131,-89.90753000
23.00018131,-89.90753000
23.04018131,-88.14356000
23.08018131,-84.61562000
23.12018131,-82.85165000
23.16018131,-82.85165000
23.20018131,-81.08157000
23.24018131,-79.31760000
23.28018131,-77.55363000
23.32018131,-75.78967000
23.36018131,-74.02570000
23.40018131,-74.02570000
23.44018131,-70.49776000
23.48018131,-68.73379000
23.52018130,-68.73379000
23.56018130,-66.96982000
23.60018130,-63.44188000
23.64018130,-63.44188000
23.68018130,-61.67791000
23.72018130,-59.91394000
23.76018130,-56.38600000
23.80018130,-54.62203000
23.84018130,-54.62203000
23.88018130,-52.85195000
23.92018130,-51.08798000
23.96018130,-49.32401000
24.00018130,-47.56004000
24.04018130,-47.56004000
24.08018130,-44.03210000
24.12018130,-40.50417000
24.16018130,-40.50417000
24.20018130,-38.74020000
24.24018130,-36.97623000
24.28018130,-35.21225000
24.32018130,-33.44828000
24.36018130,-31.68431000
24.40018130,-29.92035000
24.44018130,-28.15638000
24.48018130,-26.39241000
24.52018130,-24.62233000
24.56018130,-22.85836000
24.60018130,-21.09439000
24.64018130,-19.33042000
24.68018130,-17.56645000
24.72018130,-15.80248000
24.76018130,-12.27454000
24.80018130,-12.27454000
24.84018130,-10.51057000
24.88018130,-8.74660500
24.92018130,-5.21866500
24.96018130,-5.21866500
25.00018130,-3.45469500
25.04018130,0.07324442
25.08018130,1.83721400
25.12018130,3.60118400
25.16018129,5.36515400
25.20018129,7.12912400
25.24018129,8.89309300
25.28018129,8.89309300
25.32018129,10.65706000
25.36018129,14.18500000
25.40018129,15.94897000
25.44018129,17.71294000
25.48018129,19.47691000
25.52018129,21.24088000
25.56018129,23.00485000
25.60018129,24.76882000
25.64018129,26.53279000
25.68018129,28.29676000
25.72018129,30.06684000
25.76018129,31.83080000
25.80018129,33.59477000
25.84018129,35.35874000
25.88018129,37.12271000
25.92018129,38.88668000
25.96018129,38.88668000
26.00018129,42.41463000
26.04018129,44.17860000
26.08018129,44.17860000
26.12018129,47.70654000
26.16018129,49.47050000
26.20018129,49.47050000
26.24018129,52.99844000
26.28018129,52.99844000
26.32018129,56.52638000
26.36018129,58.29646000
26.40018129,60.06042000
26.44018129,61.82440000
26.48018129,61.82440000
26.52018129,65.35233000
26.56018129,65.35233000
26.60018129,67.11631000
26.64018129,70.64425000
26.68018129,72.40822000
26.72018129,72.40822000
26.76018129,74.17219000
26.80018128,77.70013000
26.84018128,77.70013000
26.88018128,79.46410000
26.92018128,81.22807000
26.96018128,81.22807000
27.00018128,84.75600000
27.04018128,86.52608000
27.08018128,86.52608000
27.12018128,88.29005000
27.16018128,91.81799000
27.20018128,91.81799000
27.24018128,93.58195000
27.28018128,95.34592000
27.32018128,97.10989000
27.36018128,98.87386000
27.40018128,100.63780000
27.44018128,100.63780000
27.48018128,102.40180000
27.52018128,105.92970000
27.56018128,105.92970000
27.60018128,107.69370000
27.64018128,107.69370000
27.68018128,109.45770000
27.72018128,111.22170000
27.76018128,112.98560000
27.80018128,114.75570000
27.84018128,114.75570000
27.88018128,116.51970000
27.92018128,120.04760000
27.96018128,120.04760000
28.00018128,121.81160000
28.04018128,121.81160000
28.08018128,121.81160000
28.12018128,127.10350000
28.16018128,127.10350000
28.20018128,128.86740000
28.24018128,128.86740000
28.28018128,130.63140000
28.32018128,130.63140000
28.36018128,134.15940000
28.40018128,134.15940000
28.44018127,135.92330000
28.48018127,135.92330000
28.52018127,137.68730000
28.56018127,137.68730000
28.60018127,141.21520000
28.64018127,141.21520000
28.68018127,142.98530000
28.72018127,142.98530000
28.76018127,144.74930000
28.80018127,144.74930000
28.84018127,146.51330000
28.88018127,148.27720000
28.92018127,148.27720000
28.96018127,150.04120000
29.00018127,150.04120000
29.04018127,151.80520000
29.08018127,151.80520000
29.12018127,155.33310000
29.16018127,153.56910000
29.20018127,155.33310000
29.24018127,157.09710000
29.28018127,157.09710000
29.32018127,157.09710000
29.36018127,157.09710000
29.40018127,158.86110000
29.44018127,160.62500000
29.48018127,162.38900000
29.52018127,162.38900000
29.56018127,162.38900000
29.60018127,164.15300000
29.64018127,164.15300000
29.68018127,165.91690000
29.72018127,165.91690000
29.76018127,165.91690000
29.80018127,167.68090000
29.84018127,167.68090000
29.88018127,169.44490000
29.92018127,169.44490000
29.96018127,169.44490000
30.00018127,171.21490000
30.04018127,171.21490000
30.08018126,171.21490000
30.12018126,171.21490000
30.16018126,171.21490000
30.20018126,172.97890000
30.24018126,172.97890000
30.28018126,174.74290000
30.32018126,174.74290000
30.36018126,174.74290000
30.40018126,176.50690000
30.44018126,176.50690000
30.48018126,176.50690000
30.52018126,176.50690000
30.56018126,178.27080000
30.60018126,176.50690000
30.64018126,178.27080000
30.68018126,178.27080000
30.72018126,178.27080000
30.76018126,178.27080000
30.80018126,178.27080000
30.84018126,178.27080000
30.88018126,180.03480000
30.92018126,178.27080000
30.96018126,180.03480000
31.00018126,178.27080000
31.04018126,178.27080000
31.08018126,180.03480000
31.12018126,180.03480000
31.16018126,180.03480000
31.20018126,180.03480000
31.24018126,180.03480000
31.28018126,180.03480000
31.32018126,180.03480000
31.36018126,180.03480000
31.40018126,180.03480000
31.44018126,180.03480000
31.48018126,180.03480000
31.52018126,178.27080000
31.56018126,178.27080000
31.60018126,180.03480000
31.64018126,178.27080000
31.68018126,178.27080000
31.72018125,178.27080000
31.76018125,176.50690000
31.80018125,180.03480000
31.84018125,180.03480000
31.88018125,178.27080000
31.92018125,178.27080000
31.96018125,178.27080000
32.00018125,178.27080000
32.04018125,178.27080000
32.08018125,176.50690000
32.12018125,176.50690000
32.16018125,176.50690000
32.20018125,176.50690000
32.24018125,176.50690000
32.28018125,174.74290000
32.32018125,174.74290000
32.36018125,174.74290000
32.40018125,172.97890000
32.44018125,172.97890000
32.48018125,172.97890000
32.52018125,171.21490000
32.56018125,171.21490000
32.60018125,171.21490000
32.64018125,171.21490000
32.68018125,171.21490000
32.72018125,169.44490000
32.76018125,169.44490000
32.80018125,169.44490000
32.84018125,167.68090000
32.88018125,165.91690000
32.92018125,165.91690000
32.96018125,164.15300000
33.00018125,164.15300000
33.04018125,164.15300000
33.08018125,162.38900000
33.12018125,162.38900000
33.16018125,162.38900000
33.20018125,160.62500000
33.24018125,158.86110000
33.28018125,158.86110000
33.32018125,157.09710000
33.36018125,157.09710000
33.40018124,157.09710000
33.44018124,155.33310000
33.48018124,155.33310000
33.52018124,153.56910000
33.56018124,151.80520000
33.60018124,151.80520000
33.64018124,150.04120000
33.68018124,150.04120000
33.72018124,148.27720000
33.76018124,148.27720000
33.80018124,146.51330000
33.84018124,144.74930000
33.88018124,142.98530000
33.92018124,142.98530000
33.96018124,142.98530000
34.00018124,141.21520000
34.04018124,141.21520000
34.08018124,137.68730000
34.12018124,137.68730000
34.16018124,135.92330000
34.20018124,135.92330000
34.24018124,134.15940000
34.28018124,132.39540000
34.32018124,130.63140000
34.36018124,128.86740000
34.40018124,128.86740000
34.44018124,127.10350000
34.48018124,127.10350000
34.52018124,125.33950000
34.56018124,123.57550000
34.60018124,121.81160000
34.64018124,121.81160000
34.68018124,120.04760000
34.72018124,118.28360000
34.76018124,116.51970000
34.80018124,114.75570000
34.84018124,114.75570000
34.88018124,112.98560000
34.92018124,111.22170000
34.96018124,109.45770000
35.00018124,107.69370000
35.04018123,107.69370000
35.08018123,105.92970000
35.12018123,104.16580000
35.16018123,102.40180000
35.20018123,100.63780000
35.24018123,100.63780000
35.28018123,98.87386000
35.32018123,95.34592000
35.36018123,95.34592000
35.40018123,93.58195000
35.44018123,91.81799000
35.48018123,90.05402000
35.52018123,88.29005000
35.56018123,86.52608000
35.60018123,86.52608000
35.64018123,84.75600000
35.68018123,81.22807000
35.72018123,81.22807000
35.76018123,79.46410000
35.80018123,77.70013000
35.84018123,77.70013000
35.88018123,74.17219000
35.92018123,72.40822000
35.96018123,72.40822000
36.00018123,70.64425000
36.04018123,67.11631000
36.08018123,65.35233000
36.12018123,65.35233000
36.16018123,63.58836000
36.20018123,61.82440000
36.24018123,58.29646000
36.28018123,58.29646000
36.32018123,56.52638000
36.36018123,54.76241000
36.40018123,52.99844000
36.44018123,51.23447000
36.48018123,49.47050000
36.52018123,49.47050000
36.56018123,44.17860000
36.60018123,44.17860000
36.64018123,42.41463000
36.68018122,40.65065000
36.72018122,38.88668000
36.76018122,37.12271000
36.80018122,35.35874000
36.84018122,33.59477000
36.88018122,31.83080000
36.92018122,30.06684000
36.96018122,28.29676000
37.00018122,24.76882000
37.04018122,23.00485000
37.08018122,23.00485000
37.12018122,21.24088000
37.16018122,17.71294000
37.20018122,17.71294000
37.24018122,15.94897000
37.28018122,14.18500000
37.32018122,12.42103000
37.36018122,8.89309300
37.40018122,7.12912400
37.44018122,7.12912400
37.48018122,3.60118400
37.52018122,1.83721400
37.56018122,1.83721400
37.60018122,0.07324442
37.64018122,-3.45469500
37.68018122,-5.21866500
37.72018122,-5.21866500
37.76018122,-6.98263500
37.80018122,-10.51057000
37.84018122,-12.27454000
37.88018122,-14.03851000
37.92018122,-15.80248000
37.96018122,-17.56645000
38.00018122,-19.33042000
38.04018122,-21.09439000
38.08018122,-22.85836000
38.12018122,-24.62233000
38.16018122,-26.39241000
38.20018122,-26.39241000
38.24018122,-29.92035000
38.28018122,-31.68431000
38.32018121,-33.44828000
38.36018121,-35.21225000
38.40018121,-36.97623000
38.44018121,-38.74020000
38.48018121,-40.50417000
38.52018121,-40.50417000
38.56018121,-44.03210000
38.60018121,-47.56004000
38.64018121,-47.56004000
38.68018121,-49.32401000
38.72018121,-51.08798000
38.76018121,-52.85195000
38.80018121,-54.62203000
38.84018121,-56.38600000
38.88018121,-58.14997000
38.92018121,-59.91394000
38.96018121,-61.67791000
39.00018121,-63.44188000
39.04018121,-63.44188000
39.08018121,-66.96982000
39.12018121,-68.73379000
39.16018121,-68.73379000
39.20018121,-70.49776000
39.24018121,-74.02570000
39.28018121,-74.02570000
39.32018121,-75.78967000
39.36018121,-77.55363000
39.40018121,-79.31760000
39.44018121,-81.08157000
39.48018121,-82.85165000
39.52018121,-84.61562000
39.56018121,-84.61562000
39.60018121,-86.37959000
39.64018121,-89.90753000
39.68018121,-89.90753000
39.72018121,-91.67150000
39.76018121,-91.67150000
39.80018121,-96.96341000
39.84018121,-96.96341000
39.88018121,-96.96341000
39.92018121,-98.72738000
39.96018120,-102.25530000
40.00018120,-104.01930000
40.04018120,-104.01930000
40.08018120,-105.78330000
40.12018120,-105.78330000
40.16018120,-109.31120000
40.20018120,-111.08130000
40.24018120,-111.08130000
40.28018120,-112.84520000
40.32018120,-114.60920000
40.36018120,-116.37320000
40.40018120,-118.13720000
40.44018120,-118.13720000
40.48018120,-119.90110000
40.52018120,-119.90110000
40.56018120,-123.42910000
40.60018120,-125.19300000
40.64018120,-125.19300000
40.68018120,-126.95700000
40.72018120,-126.95700000
40.76018120,-128.72100000
40.80018120,-130.48490000
40.84018120,-132.24890000
40.88018120,-132.24890000
40.92018120,-134.01290000
40.96018120,-134.01290000
41.00018120,-135.77680000
41.04018120,-137.54080000
41.08018120,-139.31090000
41.12018120,-139.31090000
41.16018120,-141.07490000
41.20018120,-142.83880000
41.24018120,-144.60280000
41.28018120,-146.36680000
41.32018120,-146.36680000
41.36018120,-146.36680000
41.40018120,-146.36680000
41.44018120,-148.13070000
41.48018120,-149.89470000
41.52018120,-149.89470000
41.56018120,-151.65870000
41.60018119,-153.42260000
41.64018119,-153.42260000
41.68018119,-153.42260000
41.72018119,-155.18660000
41.76018119,-155.18660000
41.80018119,-156.95060000
41.84018119,-156.95060000
41.88018119,-158.71460000
41.92018119,-160.47850000
41.96018119,-160.47850000
42.00018119,-160.47850000
42.04018119,-162.24250000
42.08018119,-162.24250000
42.12018119,-162.24250000
42.16018119,-164.00650000
42.20018119,-165.77040000
42.24018119,-165.77040000
42.28018119,-165.77040000
42.32018119,-167.54050000
42.36018119,-167.54050000
42.40018119,-169.30450000
42.44018119,-169.30450000
42.48018119,-169.30450000
42.52018119,-169.30450000
42.56018119,-169.30450000
42.60018119,-171.06850000
42.64018119,-171.06850000
42.68018119,-171.06850000
42.72018119,-172.83240000
42.76018119,-172.83240000
42.80018119,-172.83240000
42.84018119,-174.59640000
42.88018119,-174.59640000
42.92018119,-174.59640000
42.96018119,-174.59640000
43.00018119,-176.36040000
43.04018119,-174.59640000
43.08018119,-176.36040000
43.12018119,-176.36040000
43.16018119,-176.36040000
43.20018119,-178.12430000
43.24018118,-176.36040000
43.28018118,-178.12430000
43.32018118,-178.12430000
43.36018118,-178.12430000
43.40018118,-178.12430000
43.44018118,-178.12430000
43.48018118,-179.88830000
43.52018118,-178.12430000
43.56018118,-178.12430000
43.60018118,-179.88830000
43.64018118,-179.88830000
43.68018118,-179.88830000
43.72018118,-178.12430000
43.76018118,-179.88830000
43.80018118,-179.88830000
43.84018118,-179.88830000
43.88018118,-178.12430000
43.92018118,-178.12430000
43.96018118,-179.88830000
44.00018118,-181.65230000
44.04018118,-179.88830000
44.08018118,-178.12430000
44.12018118,-178.12430000
44.16018118,-179.88830000
44.20018118,-178.12430000
44.24018118,-178.12430000
44.28018118,-178.12430000
44.32018118,-178.12430000
44.36018118,-176.36040000
44.40018118,-178.12430000
44.44018118,-176.36040000
44.48018118,-176.36040000
44.52018118,-176.36040000
44.56018118,-176.36040000
44.60018118,-176.36040000
44.64018118,-176.36040000
44.68018118,-174.59640000
44.72018118,-174.59640000
44.76018118,-174.59640000
44.80018118,-174.59640000
44.84018118,-174.59640000
44.88018117,-172.83240000
44.92018117,-172.83240000
44.96018117,-172.83240000
45.00018117,-172.83240000
45.04018117,-171.06850000
45.08018117,-169.30450000
45.12018117,-169.30450000
45.16018117,-167.54050000
45.20018117,-169.30450000
45.24018117,-167.54050000
45.28018117,-167.54050000
45.32018117,-167.54050000
45.36018117,-165.77040000
45.40018117,-165.77040000
45.44018117,-165.77040000
45.48018117,-164.00650000
45.52018117,-164.00650000
45.56018117,-162.24250000
45.60018117,-162.24250000
45.64018117,-160.47850000
45.68018117,-160.47850000
45.72018117,-158.71460000
45.76018117,-158.71460000
45.80018117,-156.95060000
45.84018117,-156.95060000
45.88018117,-155.18660000
45.92018117,-155.18660000
45.96018117,-155.18660000
46.00018117,-153.42260000
46.04018117,-151.65870000
46.08018117,-151.65870000
46.12018117,-149.89470000
46.16018117,-148.13070000
46.20018117,-148.13070000
46.24018117,-146.36680000
46.28018117,-146.36680000
46.32018117,-146.36680000
46.36018117,-144.60280000
46.40018117,-144.60280000
46.44018117,-141.07490000
46.48018117,-139.31090000
46.52018117,-141.07490000
46.56018116,-139.31090000
46.60018116,-137.54080000
46.64018116,-135.77680000
46.68018116,-134.01290000
46.72018116,-134.01290000
46.76018116,-132.24890000
46.80018116,-132.24890000
46.84018116,-130.48490000
46.88018116,-128.72100000
46.92018116,-126.95700000
46.96018116,-126.95700000
47.00018116,-125.19300000
47.04018116,-123.42910000
47.08018116,-121.66510000
47.12018116,-119.90110000
47.16018116,-119.90110000
47.20018116,-118.13720000
47.24018116,-116.37320000
47.28018116,-114.60920000
47.32018116,-112.84520000
47.36018116,-112.84520000
47.40018116,-111.08130000
47.44018116,-111.08130000
47.48018116,-109.31120000
47.52018116,-105.78330000
47.56018116,-105.78330000
47.60018116,-104.01930000
47.64018116,-104.01930000
47.68018116,-102.25530000
47.72018116,-98.72738000
47.76018116,-98.72738000
47.80018116,-96.96341000
47.84018116,-95.19944000
47.88018116,-93.43547000
47.92018116,-91.67150000
47.96018116,-89.90753000
48.00018116,-89.90753000
48.04018116,-88.14356000
48.08018116,-84.61562000
48.12018116,-82.85165000
48.16018116,-82.85165000
48.20018115,-81.08157000
48.24018115,-79.31760000
48.28018115,-77.55363000
48.32018115,-75.78967000
48.36018115,-74.02570000
48.40018115,-74.02570000
48.44018115,-70.49776000
48.48018115,-70.49776000
48.52018115,-68.73379000
48.56018115,-66.96982000
48.60018115,-63.44188000
48.64018115,-61.67791000
48.68018115,-61.67791000
48.72018115,-59.91394000
48.76018115,-58.14997000
48.80018115,-56.38600000
48.84018115,-54.62203000
48.88018115,-52.85195000
48.92018115,-51.08798000
48.96018115,-49.32401000
49.00018115,-47.56004000
49.04018115,-47.56004000
49.08018115,-45.79607000
49.12018115,-42.26814000
49.16018115,-40.50417000
49.20018115,-38.74020000
49.24018115,-35.21225000
49.28018115,-35.21225000
49.32018115,-33.44828000
49.36018115,-31.68431000
49.40018115,-29.92035000
49.44018115,-28.15638000
49.48018115,-26.39241000
49.52018115,-24.62233000
49.56018115,-22.85836000
49.60018115,-21.09439000
49.64018115,-19.33042000
49.68018115,-17.56645000
49.72018115,-17.56645000
49.76018115,-14.03851000
49.80018115,-12.27454000
49.84018114,-8.74660500
49.88018114,-6.98263500
49.92018114,-6.98263500
49.96018114,-5.21866500
50.00018114,-3.45469500
50.04018114,0.07324442
50.08018114,1.83721400
50.12018114,1.83721400
50.16018114,5.36515400
50.20018114,7.12912400
50.24018114,8.89309300
50.28018114,8.89309300
50.32018114,10.65706000
50.36018114,14.18500000
50.40018114,15.94897000
50.44018114,17.71294000
50.48018114,17.71294000
50.52018114,21.24088000
50.56018114,23.00485000
50.60018114,24.76882000
50.64018114,26.53279000
50.68018114,28.29676000
50.72018114,30.06684000
50.76018114,30.06684000
50.80018114,33.59477000
50.84018114,35.35874000
50.88018114,37.12271000
50.92018114,37.12271000
50.96018114,38.88668000
51.00018114,42.41463000
51.04018114,44.17860000
51.08018114,44.17860000
51.12018114,47.70654000
51.16018114,49.47050000
51.20018114,51.23447000
51.24018114,52.99844000
51.28018114,54.76241000
51.32018114,56.52638000
51.36018114,58.29646000
51.40018114,58.29646000
51.44018114,60.06042000
51.48018113,63.58836000
51.52018113,65.35233000
51.56018113,67.11631000
51.60018113,68.88028000
51.64018113,70.64425000
51.68018113,70.64425000
51.72018113,72.40822000
51.76018113,75.93616000
51.80018113,75.93616000
51.84018113,77.70013000
51.88018113,79.46410000
51.92018113,81.22807000
51.96018113,82.99203000
52.00018113,84.75600000
52.04018113,86.52608000
52.08018113,86.52608000
52.12018113,88.29005000
52.16018113,91.81799000
52.20018113,93.58195000
52.24018113,93.58195000
52.28018113,95.34592000
52.32018113,95.34592000
52.36018113,98.87386000
52.40018113,100.63780000
52.44018113,100.63780000
52.48018113,102.40180000
52.52018113,104.16580000
52.56018113,105.92970000
52.60018113,107.69370000
52.64018113,107.69370000
52.68018113,109.45770000
52.72018113,112.98560000
52.76018113,112.98560000
52.80018113,114.75570000
52.84018113,114.75570000
52.88018113,116.51970000
52.92018113,120.04760000
52.96018113,120.04760000
53.00018113,121.81160000
53.04018113,121.81160000
53.08018113,123.57550000
53.12018112,125.33950000
53.16018112,127.10350000
53.20018112,128.86740000
53.24018112,128.86740000
53.28018112,128.86740000
53.32018112,130.63140000
53.36018112,132.39540000
53.40018112,134.15940000
53.44018112,135.92330000
53.48018112,135.92330000
53.52018112,135.92330000
53.56018112,137.68730000
53.60018112,141.21520000
53.64018112,141.21520000
53.68018112,142.98530000
53.72018112,142.98530000
53.76018112,144.74930000
53.80018112,144.74930000
53.84018112,146.51330000
53.88018112,148.27720000
53.92018112,148.27720000
53.96018112,150.04120000
54.00018112,150.04120000
54.04018112,151.80520000
54.08018112,151.80520000
54.12018112,153.56910000
54.16018112,155.33310000
54.20018112,155.33310000
54.24018112,157.09710000
54.28018112,157.09710000
54.32018112,157.09710000
54.36018112,158.86110000
54.40018112,158.86110000
54.44018112,160.62500000
54.48018112,162.38900000
54.52018112,162.38900000
54.56018112,162.38900000
54.60018112,164.15300000
54.64018112,164.15300000
54.68018112,164.15300000
54.72018112,165.91690000
54.76018111,165.91690000
54.80018111,167.68090000
54.84018111,167.68090000
54.88018111,169.44490000
54.92018111,169.44490000
54.96018111,171.21490000
55.00018111,169.44490000
55.04018111,171.21490000
55.08018111,171.21490000
55.12018111,171.21490000
55.16018111,171.21490000
55.20018111,172.97890000
55.24018111,172.97890000
55.28018111,174.74290000
55.32018111,174.74290000
55.36018111,174.74290000
55.40018111,176.50690000
55.44018111,176.50690000
55.48018111,176.50690000
55.52018111,176.50690000
55.56018111,176.50690000
55.60018111,178.27080000
55.64018111,178.27080000
55.68018111,178.27080000
55.72018111,178.27080000
55.76018111,178.27080000
55.80018111,178.27080000
55.84018111,178.27080000
55.88018111,178.27080000
55.92018111,178.27080000
55.96018111,180.03480000
56.00018111,178.27080000
56.04018111,178.27080000
56.08018111,178.27080000
56.12018111,180.03480000
56.16018111,180.03480000
56.20018111,180.03480000
56.24018111,180.03480000
56.28018111,178.27080000
56.32018111,180.03480000
56.36018111,180.03480000
56.40018110,180.03480000
56.44018110,180.03480000
56.48018110,180.03480000
56.52018110,180.03480000
56.56018110,180.03480000
56.60018110,178.27080000
56.64018110,178.27080000
56.68018110,178.27080000
56.72018110,178.27080000
56.76018110,178.27080000
56.80018110,178.27080000
56.84018110,178.27080000
56.88018110,178.27080000
56.92018110,178.27080000
56.96018110,178.27080000
57.00018110,178.27080000
57.04018110,176.50690000
57.08018110,178.27080000
57.12018110,176.50690000
57.16018110,176.50690000
57.20018110,176.50690000
57.24018110,176.50690000
57.28018110,174.74290000
57.32018110,174.74290000
57.36018110,172.97890000
57.40018110,172.97890000
57.44018110,172.97890000
57.48018110,172.97890000
57.52018110,171.21490000
57.56018110,171.21490000
57.60018110,171.21490000
57.64018110,171.21490000
57.68018110,171.21490000
57.72018110,169.44490000
57.76018110,169.44490000
57.80018110,167.68090000
57.84018110,167.68090000
57.88018110,165.91690000
57.92018110,165.91690000
57.96018110,164.15300000
58.00018110,164.15300000
58.04018110,164.15300000
58.08018109,164.15300000
58.12018109,162.38900000
58.16018109,162.38900000
58.20018109,160.62500000
58.24018109,158.86110000
58.28018109,157.09710000
58.32018109,158.86110000
58.36018109,157.09710000
58.40018109,157.09710000
58.44018109,155.33310000
58.48018109,155.33310000
58.52018109,153.56910000
58.56018109,151.80520000
58.60018109,150.04120000
58.64018109,150.04120000
58.68018109,150.04120000
58.72018109,148.27720000
58.76018109,148.27720000
58.80018109,146.51330000
58.84018109,144.74930000
58.88018109,144.74930000
58.92018109,142.98530000
58.96018109,141.21520000
59.00018109,142.98530000
59.04018109,141.21520000
59.08018109,139.45130000
59.12018109,137.68730000
59.16018109,135.92330000
59.20018109,135.92330000
59.24018109,134.15940000
59.28018109,132.39540000
59.32018109,130.63140000
59.36018109,128.86740000
59.40018109,128.86740000
59.44018109,128.86740000
59.48018109,127.10350000
59.52018109,123.57550000
59.56018109,123.57550000
59.60018109,121.81160000
59.64018109,121.81160000
59.68018109,120.04760000
59.72018108,120.04760000
59.76018108,116.51970000
59.80018108,114.75570000
59.84018108,114.75570000
59.88018108,112.98560000
59.92018108,111.22170000
59.96018108,109.45770000
60.00018108,109.45770000
60.04018108,107.69370000
60.08018108,105.92970000
60.12018108,105.92970000
60.16018108,102.40180000
60.20018108,100.63780000
60.24018108,100.63780000
60.28018108,98.87386000
60.32018108,97.10989000
60.36018108,95.34592000
60.40018108,93.58195000
60.44018108,91.81799000
60.48018108,91.81799000
60.52018108,88.29005000
60.56018108,86.52608000
60.60018108,86.52608000
60.64018108,84.75600000
60.68018108,82.99203000
60.72018108,81.22807000
60.76018108,79.46410000
60.80018108,77.70013000
60.84018108,75.93616000
60.88018108,74.17219000
60.92018108,72.40822000
60.96018108,70.64425000
61.00018108,70.64425000
61.04018108,67.11631000
61.08018108,65.35233000
61.12018108,63.58836000
61.16018108,63.58836000
61.20018108,61.82440000
61.24018108,58.29646000
61.28018108,58.29646000
61.32018108,56.52638000
61.36018107,52.99844000
61.40018107,52.99844000
61.44018107,51.23447000
61.48018107,47.70654000
61.52018107,49.47050000
61.56018107,45.94257000
61.60018107,44.17860000
61.64018107,42.41463000
61.68018107,40.65065000
61.72018107,37.12271000
61.76018107,37.12271000
61.80018107,35.35874000
61.84018107,33.59477000
61.88018107,31.83080000
61.92018107,30.06684000
61.96018107,28.29676000
62.00018107,26.53279000
62.04018107,24.76882000
62.08018107,21.24088000
62.12018107,21.24088000
62.16018107,19.47691000
62.20018107,15.94897000
62.24018107,15.94897000
62.28018107,14.18500000
62.32018107,10.65706000
62.36018107,8.89309300
62.40018107,8.89309300
62.44018107,7.12912400
62.48018107,3.60118400
62.52018107,1.83721400
62.56018107,0.07324442
62.60018107,0.07324442
62.64018107,-3.45469500
62.68018107,-5.21866500
62.72018107,-5.21866500
62.76018107,-6.98263500
62.80018107,-10.51057000
62.84018107,-12.27454000
62.88018107,-14.03851000
62.92018107,-15.80248000
62.96018107,-17.56645000
63.00018106,-19.33042000
63.04018106,-21.09439000
63.08018106,-22.85836000
63.12018106,-24.62233000
63.16018106,-26.39241000
63.20018106,-28.15638000
63.24018106,-29.92035000
63.28018106,-31.68431000
63.32018106,-33.44828000
63.36018106,-35.21225000
63.40018106,-36.97623000
63.44018106,-38.74020000
63.48018106,-40.50417000
63.52018106,-42.26814000
63.56018106,-45.79607000
63.60018106,-45.79607000
63.64018106,-47.56004000
63.68018106,-49.32401000
63.72018106,-51.08798000
63.76018106,-52.85195000
63.80018106,-54.62203000
63.84018106,-56.38600000
63.88018106,-56.38600000
63.92018106,-59.91394000
63.96018106,-61.67791000
64.00018106,-61.67791000
64.04018106,-63.44188000
64.08018106,-66.96982000
64.12018106,-68.73379000
64.16018106,-70.49776000
64.20018106,-70.49776000
64.24018106,-74.02570000
64.28018106,-75.78967000
64.32018106,-75.78967000
64.36018106,-77.55363000
64.40018106,-79.31760000
64.44018106,-81.08157000
64.48018106,-82.85165000
64.52018106,-84.61562000
64.56018106,-84.61562000
64.60018106,-88.14356000
64.64018105,-88.14356000
64.68018105,-89.90753000
64.72018105,-91.67150000
64.76018105,-93.43547000
64.80018105,-95.19944000
64.84018105,-96.96341000
64.88018105,-96.96341000
64.92018105,-98.72738000
64.96018105,-102.25530000
65.00018105,-104.01930000
65.04018105,-104.01930000
65.08018105,-105.78330000
65.12018105,-107.54720000
65.16018105,-109.31120000
65.20018105,-111.08130000
65.24018105,-111.08130000
65.28018105,-112.84520000
65.32018105,-112.84520000
65.36018105,-116.37320000
65.40018105,-118.13720000
65.44018105,-118.13720000
65.48018105,-118.13720000
65.52018105,-121.66510000
65.56018105,-121.66510000
65.60018105,-125.19300000
65.64018105,-125.19300000
65.68018105,-126.95700000
65.72018105,-126.95700000
65.76018105,-130.48490000
65.80018105,-130.48490000
65.84018105,-132.24890000
65.88018105,-132.24890000
65.92018105,-134.01290000
65.96018105,-134.01290000
66.00018105,-137.54080000
66.04018105,-139.31090000
66.08018105,-139.31090000
66.12018105,-139.31090000
66.16018105,-141.07490000
66.20018105,-141.07490000
66.24018105,-144.60280000
66.28018104,-144.60280000
66.32018104,-146.36680000
66.36018104,-146.36680000
66.40018104,-146.36680000
66.44018104,-148.13070000
66.48018104,-149.89470000
66.52018104,-149.89470000
66.56018104,-151.65870000
66.60018104,-151.65870000
66.64018104,-153.42260000
66.68018104,-155.18660000
66.72018104,-153.42260000
66.76018104,-155.18660000
66.80018104,-158.71460000
66.84018104,-158.71460000
66.88018104,-158.71460000
66.92018104,-160.47850000
66.96018104,-160.47850000
67.00018104,-160.47850000
67.04018104,-162.24250000
67.08018104,-162.24250000
67.12018104,-162.24250000
67.16018104,-164.00650000
67.20018104,-164.00650000
67.24018104,-165.77040000
67.28018104,-165.77040000
67.32018104,-167.54050000
67.36018104,-167.54050000
67.40018104,-167.54050000
67.44018104,-167.54050000
67.48018104,-169.30450000
67.52018104,-169.30450000
67.56018104,-169.30450000
67.60018104,-171.06850000
67.64018104,-172.83240000
67.68018104,-172.83240000
67.72018104,-172.83240000
67.76018104,-174.59640000
67.80018104,-172.83240000
67.84018104,-174.59640000
67.88018104,-174.59640000
67.92018103,-174.59640000
67.96018103,-174.59640000
68.00018103,-174.59640000
68.04018103,-176.36040000
68.08018103,-176.36040000
68.12018103,-176.36040000
68.16018103,-176.36040000
68.20018103,-176.36040000
68.24018103,-176.36040000
68.28018103,-176.36040000
68.32018103,-178.12430000
68.36018103,-178.12430000
68.40018103,-178.12430000
68.44018103,-178.12430000
68.48018103,-179.88830000
68.52018103,-179.88830000
68.56018103,-179.88830000
68.60018103,-178.12430000
68.64018103,-179.88830000
68.68018103,-178.12430000
68.72018103,-179.88830000
68.76018103,-179.88830000
68.80018103,-181.65230000
68.84018103,-179.88830000
68.88018103,-178.12430000
68.92018103,-179.88830000
68.96018103,-179.88830000
69.00018103,-179.88830000
69.04018103,-178.12430000
69.08018103,-179.88830000
69.12018103,-179.88830000
69.16018103,-179.88830000
69.20018103,-178.12430000
69.24018103,-176.36040000
69.28018103,-176.36040000
69.32018103,-176.36040000
69.36018103,-179.88830000
69.40018103,-178.12430000
69.44018103,-174.59640000
69.48018103,-176.36040000
69.52018103,-176.36040000
69.56018102,-176.36040000
69.60018102,-174.59640000
69.64018102,-174.59640000
69.68018102,-174.59640000
69.72018102,-174.59640000
69.76018102,-174.59640000
69.80018102,-174.59640000
69.84018102,-174.59640000
69.88018102,-172.83240000
69.92018102,-172.83240000
69.96018102,-172.83240000
70.00018102,-171.06850000
70.04018102,-169.30450000
70.08018102,-171.06850000
70.12018102,-169.30450000
70.16018102,-169.30450000
70.20018102,-169.30450000
70.24018102,-167.54050000
70.28018102,-167.54050000
70.32018102,-167.54050000
70.36018102,-167.54050000
70.40018102,-165.77040000
70.44018102,-164.00650000
70.48018102,-164.00650000
70.52018102,-162.24250000
70.56018102,-162.24250000
70.60018102,-162.24250000
70.64018102,-160.47850000
70.68018102,-160.47850000
70.72018102,-160.47850000
70.76018102,-158.71460000
70.80018102,-158.71460000
70.84018102,-156.95060000
70.88018102,-155.18660000
70.92018102,-155.18660000
70.96018102,-153.42260000
71.00018102,-153.42260000
71.04018102,-153.42260000
71.08018102,-151.65870000
71.12018102,-149.89470000
71.16018102,-149.89470000
71.20018102,-148.13070000
71.24018101,-146.36680000
71.28018101,-146.36680000
71.32018101,-144.60280000
71.36018101,-144.60280000
71.40018101,-142.83880000
71.44018101,-141.07490000
71.48018101,-141.07490000
71.52018101,-139.31090000
71.56018101,-139.31090000
71.60018101,-137.54080000
71.64018101,-137.54080000
71.68018101,-134.01290000
71.72018101,-134.01290000
71.76018101,-132.24890000
71.80018101,-132.24890000
71.84018101,-130.48490000
71.88018101,-130.48490000
71.92018101,-126.95700000
71.96018101,-126.95700000
72.00018101,-125.19300000
72.04018101,-123.42910000
72.08018101,-123.42910000
72.12018101,-121.66510000
72.16018101,-119.90110000
72.20018101,-118.13720000
72.24018101,-118.13720000
72.28018101,-116.37320000
72.32018101,-114.60920000
72.36018101,-112.84520000
72.40018101,-111.08130000
72.44018101,-111.08130000
72.48018101,-109.31120000
72.52018101,-107.54720000
72.56018101,-105.78330000
72.60018101,-104.01930000
72.64018101,-104.01930000
72.68018101,-100.49130000
72.72018101,-100.49130000
72.76018101,-98.72738000
72.80018101,-96.96341000
72.84018101,-95.19944000
72.88018100,-93.43547000
72.92018100,-91.67150000
72.96018100,-91.67150000
73.00018100,-89.90753000
73.04018100,-88.14356000
73.08018100,-84.61562000
73.12018100,-82.85165000
73.16018100,-82.85165000
73.20018100,-81.08157000
73.24018100,-79.31760000
73.28018100,-77.55363000
73.32018100,-75.78967000
73.36018100,-75.78967000
73.40018100,-74.02570000
73.44018100,-72.26173000
73.48018100,-70.49776000
73.52018100,-68.73379000
73.56018100,-66.96982000
73.60018100,-63.44188000
73.64018100,-63.44188000
73.68018100,-61.67791000
73.72018100,-59.91394000
73.76018100,-56.38600000
73.80018100,-56.38600000
73.84018100,-54.62203000
73.88018100,-54.62203000
73.92018100,-51.08798000
73.96018100,-49.32401000
74.00018100,-47.56004000
74.04018100,-45.79607000
74.08018100,-44.03210000
74.12018100,-42.26814000
74.16018100,-40.50417000
74.20018100,-38.74020000
74.24018100,-36.97623000
74.28018100,-35.21225000
74.32018100,-33.44828000
74.36018100,-31.68431000
74.40018100,-29.92035000
74.44018100,-28.15638000
74.48018100,-26.39241000
74.52018099,-24.62233000
74.56018099,-22.85836000
74.60018099,-21.09439000
74.64018099,-19.33042000
74.68018099,-17.56645000
74.72018099,-15.80248000
74.76018099,-14.03851000
74.80018099,-12.27454000
74.84018099,-10.51057000
74.88018099,-6.98263500
74.92018099,-6.98263500
74.96018099,-5.21866500
75.00018099,-3.45469500
75.04018099,-1.69072500
75.08018099,1.83721400
75.12018099,1.83721400
75.16018099,3.60118400
75.20018099,7.12912400
75.24018099,8.89309300
75.28018099,8.89309300
75.32018099,12.42103000
75.36018099,14.18500000
75.40018099,15.94897000
75.44018099,17.71294000
75.48018099,17.71294000
75.52018099,21.24088000
75.56018099,23.00485000
75.60018099,24.76882000
75.64018099,26.53279000
75.68018099,28.29676000
75.72018099,30.06684000
75.76018099,31.83080000
75.80018099,31.83080000
75.84018099,35.35874000
75.88018099,37.12271000
75.92018099,37.12271000
75.96018099,40.65065000
76.00018099,42.41463000
76.04018099,42.41463000
76.08018099,47.70654000
76.12018099,47.70654000
76.16018098,47.70654000
76.20018098,51.23447000
76.24018098,52.99844000
76.28018098,54.76241000
76.32018098,56.52638000
76.36018098,58.29646000
76.40018098,58.29646000
76.44018098,61.82440000
76.48018098,63.58836000
76.52018098,65.35233000
76.56018098,67.11631000
76.60018098,67.11631000
76.64018098,70.64425000
76.68018098,70.64425000
76.72018098,72.40822000
76.76018098,72.40822000
76.80018098,75.93616000
76.84018098,77.70013000
76.88018098,79.46410000
76.92018098,81.22807000
76.96018098,82.99203000
77.00018098,84.75600000
77.04018098,86.52608000
77.08018098,86.52608000
77.12018098,88.29005000
77.16018098,91.81799000
77.20018098,91.81799000
77.24018098,93.58195000
77.28018098,95.34592000
77.32018098,97.10989000
77.36018098,98.87386000
77.40018098,100.63780000
77.44018098,100.63780000
77.48018098,102.40180000
77.52018098,104.16580000
77.56018098,105.92970000
77.60018098,107.69370000
77.64018098,107.69370000
77.68018098,109.45770000
77.72018098,112.98560000
77.76018098,112.98560000
77.80018097,114.75570000
77.84018097,114.75570000
77.88018097,116.51970000
77.92018097,118.28360000
77.96018097,120.04760000
78.00018097,121.81160000
78.04018097,121.81160000
78.08018097,123.57550000
78.12018097,125.33950000
78.16018097,127.10350000
78.20018097,128.86740000
78.24018097,128.86740000
78.28018097,128.86740000
78.32018097,130.63140000
78.36018097,134.15940000
78.40018097,134.15940000
78.44018097,135.92330000
78.48018097,135.92330000
78.52018097,137.68730000
78.56018097,137.68730000
78.60018097,141.21520000
78.64018097,141.21520000
78.68018097,142.98530000
78.72018097,142.98530000
78.76018097,142.98530000
78.80018097,144.74930000
78.84018097,146.51330000
78.88018097,148.27720000
78.92018097,150.04120000
78.96018097,150.04120000
79.00018097,150.04120000
79.04018097,151.80520000
79.08018097,151.80520000
79.12018097,151.80520000
79.16018097,155.33310000
79.20018097,155.33310000
79.24018097,157.09710000
79.28018097,157.09710000
79.32018097,157.09710000
79.36018097,158.86110000
79.40018097,158.86110000
79.44018096,160.62500000
79.48018096,162.38900000
79.52018096,162.38900000
79.56018096,162.38900000
79.60018096,164.15300000
79.64018096,164.15300000
79.68018096,164.15300000
79.72018096,165.91690000
79.76018096,165.91690000
79.80018096,165.91690000
79.84018096,167.68090000
79.88018096,169.44490000
79.92018096,169.44490000
79.96018096,169.44490000
80.00018096,171.21490000
80.04018096,171.21490000
80.08018096,171.21490000
80.12018096,171.21490000
80.16018096,172.97890000
80.20018096,172.97890000
80.24018096,172.97890000
80.28018096,174.74290000
80.32018096,174.74290000
80.36018096,174.74290000
80.40018096,176.50690000
80.44018096,176.50690000
80.48018096,176.50690000
80.52018096,176.50690000
80.56018096,176.50690000
80.60018096,176.50690000
80.64018096,178.27080000
80.68018096,178.27080000
80.72018096,178.27080000
80.76018096,178.27080000
80.80018096,178.27080000
80.84018096,178.27080000
80.88018096,178.27080000
80.92018096,178.27080000
80.96018096,178.27080000
81.00018096,178.27080000
81.04018096,178.27080000
81.08018095,178.27080000
81.12018095,178.27080000
81.16018095,178.27080000
81.20018095,180.03480000
81.24018095,180.03480000
81.28018095,180.03480000
81.32018095,180.03480000
81.36018095,180.03480000
81.40018095,178.27080000
81.44018095,180.03480000
81.48018095,178.27080000
81.52018095,178.27080000
81.56018095,180.03480000
81.60018095,178.27080000
81.64018095,180.03480000
81.68018095,178.27080000
81.72018095,178.27080000
81.76018095,178.27080000
81.80018095,178.27080000
81.84018095,178.27080000
81.88018095,178.27080000
81.92018095,178.27080000
81.96018095,178.27080000
82.00018095,178.27080000
82.04018095,176.50690000
82.08018095,176.50690000
82.12018095,176.50690000
82.16018095,176.50690000
82.20018095,176.50690000
82.24018095,176.50690000
82.28018095,174.74290000
82.32018095,174.74290000
82.36018095,174.74290000
82.40018095,172.97890000
82.44018095,172.97890000
82.48018095,171.21490000
82.52018095,171.21490000
82.56018095,171.21490000
82.60018095,171.21490000
82.64018095,171.21490000
82.68018095,169.44490000
82.72018095,169.44490000
82.76018094,169.44490000
82.80018094,167.68090000
82.84018094,165.91690000
82.88018094,165.91690000
82.92018094,165.91690000
82.96018094,164.15300000
83.00018094,164.15300000
83.04018094,164.15300000
83.08018094,164.15300000
83.12018094,162.38900000
83.16018094,162.38900000
83.20018094,160.62500000
83.24018094,158.86110000
83.28018094,157.09710000
83.32018094,157.09710000
83.36018094,157.09710000
83.40018094,157.09710000
83.44018094,155.33310000
83.48018094,155.33310000
83.52018094,153.56910000
83.56018094,151.80520000
83.60018094,151.80520000
83.64018094,150.04120000
83.68018094,150.04120000
83.72018094,148.27720000
83.76018094,148.27720000
83.80018094,146.51330000
83.84018094,144.74930000
83.88018094,142.98530000
83.92018094,142.98530000
83.96018094,142.98530000
84.00018094,141.21520000
84.04018094,139.45130000
84.08018094,137.68730000
84.12018094,137.68730000
84.16018094,135.92330000
84.20018094,134.15940000
84.24018094,135.92330000
84.28018094,134.15940000
84.32018094,128.86740000
84.36018094,130.63140000
84.40018093,128.86740000
84.44018093,128.86740000
84.48018093,127.10350000
84.52018093,123.57550000
84.56018093,123.57550000
84.60018093,121.81160000
84.64018093,121.81160000
84.68018093,120.04760000
84.72018093,118.28360000
84.76018093,116.51970000
84.80018093,114.75570000
84.84018093,114.75570000
84.88018093,112.98560000
84.92018093,111.22170000
84.96018093,109.45770000
85.00018093,107.69370000
85.04018093,107.69370000
85.08018093,105.92970000
85.12018093,104.16580000
85.16018093,102.40180000
85.20018093,100.63780000
85.24018093,100.63780000
85.28018093,98.87386000
85.32018093,95.34592000
85.36018093,93.58195000
85.40018093,93.58195000
85.44018093,91.81799000
85.48018093,90.05402000
85.52018093,88.29005000
85.56018093,86.52608000
85.60018093,86.52608000
85.64018093,84.75600000
85.68018093,81.22807000
85.72018093,79.46410000
85.76018093,77.70013000
85.80018093,77.70013000
85.84018093,75.93616000
85.88018093,74.17219000
85.92018093,72.40822000
85.96018093,72.40822000
86.00018093,70.64425000
86.04018092,67.11631000
86.08018092,65.35233000
86.12018092,65.35233000
86.16018092,63.58836000
86.20018092,60.06042000
86.24018092,58.29646000
86.28018092,58.29646000
86.32018092,56.52638000
86.36018092,54.76241000
86.40018092,52.99844000
86.44018092,51.23447000
86.48018092,49.47050000
86.52018092,45.94257000
86.56018092,44.17860000
86.60018092,44.17860000
86.64018092,42.41463000
86.68018092,38.88668000
86.72018092,37.12271000
86.76018092,37.12271000
86.80018092,35.35874000
86.84018092,31.83080000
86.88018092,30.06684000
86.92018092,30.06684000
86.96018092,28.29676000
87.00018092,24.76882000
87.04018092,24.76882000
87.08018092,23.00485000
87.12018092,21.24088000
87.16018092,19.47691000
87.20018092,17.71294000
87.24018092,15.94897000
87.28018092,14.18500000
87.32018092,10.65706000
87.36018092,8.89309300
87.40018092,7.12912400
87.44018092,5.36515400
87.48018092,3.60118400
87.52018092,1.83721400
87.56018092,0.07324442
87.60018092,0.07324442
87.64018092,-3.45469500
87.68018091,-5.21866500
87.72018091,-5.21866500
87.76018091,-8.74660500
87.80018091,-10.51057000
87.84018091,-12.27454000
87.88018091,-14.03851000
87.92018091,-15.80248000
87.96018091,-17.56645000
88.00018091,-19.33042000
88.04018091,-19.33042000
88.08018091,-22.85836000
88.12018091,-26.39241000
88.16018091,-26.39241000
88.20018091,-28.15638000
88.24018091,-31.68431000
88.28018091,-31.68431000
88.32018091,-33.44828000
88.36018091,-35.21225000
88.40018091,-36.97623000
88.44018091,-38.74020000
88.48018091,-40.50417000
88.52018091,-42.26814000
88.56018091,-44.03210000
88.60018091,-45.79607000
88.64018091,-47.56004000
88.68018091,-49.32401000
88.72018091,-52.85195000
88.76018091,-52.85195000
88.80018091,-54.62203000
88.84018091,-56.38600000
88.88018091,-58.14997000
88.92018091,-61.67791000
88.96018091,-61.67791000
89.00018091,-63.44188000
89.04018091,-65.20585000
89.08018091,-66.96982000
89.12018091,-68.73379000
89.16018091,-68.73379000
89.20018091,-70.49776000
89.24018091,-74.02570000
89.28018091,-75.78967000
89.32018090,-75.78967000
89.36018090,-77.55363000
89.40018090,-79.31760000
89.44018090,-82.85165000
89.48018090,-82.85165000
89.52018090,-84.61562000
89.56018090,-86.37959000
89.60018090,-88.14356000
89.64018090,-89.90753000
89.68018090,-89.90753000
89.72018090,-91.67150000
89.76018090,-93.43547000
89.80018090,-96.96341000
89.84018090,-96.96341000
89.88018090,-98.72738000
89.92018090,-98.72738000
89.96018090,-102.25530000
90.00018090,-104.01930000
90.04018090,-104.01930000
90.08018090,-105.78330000
90.12018090,-107.54720000
90.16018090,-109.31120000
90.20018090,-111.08130000
90.24018090,-111.08130000
90.28018090,-112.84520000
90.32018090,-114.60920000
90.36018090,-116.37320000
90.40018090,-118.13720000
90.44018090,-118.13720000
90.48018090,-119.90110000
90.52018090,-121.66510000
90.56018090,-123.42910000
90.60018090,-125.19300000
90.64018090,-125.19300000
90.68018090,-126.95700000
90.72018090,-128.72100000
90.76018090,-130.48490000
90.80018090,-130.48490000
90.84018090,-132.24890000
90.88018090,-132.24890000
90.92018090,-134.01290000
90.96018089,-135.77680000
91.00018089,-137.54080000
91.04018089,-135.77680000
91.08018089,-141.07490000
91.12018089,-141.07490000
91.16018089,-139.31090000
91.20018089,-141.07490000
91.24018089,-144.60280000
91.28018089,-144.60280000
91.32018089,-146.36680000
91.36018089,-146.36680000
91.40018089,-146.36680000
91.44018089,-148.13070000
91.48018089,-149.89470000
91.52018089,-151.65870000
91.56018089,-151.65870000
91.60018089,-153.42260000
91.64018089,-153.42260000
91.68018089,-153.42260000
91.72018089,-155.18660000
91.76018089,-155.18660000
91.80018089,-156.95060000
91.84018089,-158.71460000
91.88018089,-158.71460000
91.92018089,-160.47850000
91.96018089,-160.47850000
92.00018089,-160.47850000
92.04018089,-162.24250000
92.08018089,-162.24250000
92.12018089,-162.24250000
92.16018089,-164.00650000
92.20018089,-165.77040000
92.24018089,-165.77040000
92.28018089,-165.77040000
92.32018089,-167.54050000
92.36018089,-167.54050000
92.40018089,-167.54050000
92.44018089,-169.30450000
92.48018089,-169.30450000
92.52018089,-169.30450000
92.56018089,-171.06850000
92.60018088,-171.06850000
92.64018088,-172.83240000
92.68018088,-172.83240000
92.72018088,-174.59640000
92.76018088,-172.83240000
92.80018088,-174.59640000
92.84018088,-174.59640000
92.88018088,-174.59640000
92.92018088,-174.59640000
92.96018088,-174.59640000
93.00018088,-176.36040000
93.04018088,-176.36040000
93.08018088,-176.36040000
93.12018088,-176.36040000
93.16018088,-176.36040000
93.20018088,-176.36040000
93.24018088,-176.36040000
93.28018088,-178.12430000
93.32018088,-179.88830000
93.36018088,-178.12430000
93.40018088,-178.12430000
93.44018088,-179.88830000
93.48018088,-179.88830000
93.52018088,-179.88830000
93.56018088,-179.88830000
93.60018088,-179.88830000
93.64018088,-179.88830000
93.68018088,-179.88830000
93.72018088,-179.88830000
93.76018088,-179.88830000
93.80018088,-181.65230000
93.84018088,-179.88830000
93.88018088,-181.65230000
93.92018088,-178.12430000
93.96018088,-179.88830000
94.00018088,-178.12430000
94.04018088,-181.65230000
94.08018088,-179.88830000
94.12018088,-179.88830000
94.16018088,-178.12430000
94.20018088,-179.88830000
94.24018088,-178.12430000
94.28018087,-179.88830000
94.32018087,-178.12430000
94.36018087,-178.12430000
94.40018087,-178.12430000
94.44018087,-178.12430000
94.48018087,-176.36040000
94.52018087,-176.36040000
94.56018087,-176.36040000
94.60018087,-176.36040000
94.64018087,-176.36040000
94.68018087,-174.59640000
94.72018087,-174.59640000
94.76018087,-174.59640000
94.80018087,-174.59640000
94.84018087,-174.59640000
94.88018087,-174.59640000
94.92018087,-172.83240000
94.96018087,-172.83240000
95.00018087,-171.06850000
95.04018087,-172.83240000
95.08018087,-169.30450000
95.12018087,-169.30450000
95.16018087,-169.30450000
95.20018087,-167.54050000
95.24018087,-167.54050000
95.28018087,-167.54050000
95.32018087,-167.54050000
95.36018087,-165.77040000
95.40018087,-165.77040000
95.44018087,-165.77040000
95.48018087,-164.00650000
95.52018087,-162.24250000
95.56018087,-162.24250000
95.60018087,-162.24250000
95.64018087,-160.47850000
95.68018087,-160.47850000
95.72018087,-160.47850000
95.76018087,-158.71460000
95.80018087,-158.71460000
95.84018087,-158.71460000
95.88018087,-155.18660000
95.92018086,-153.42260000
95.96018086,-153.42260000
96.00018086,-153.42260000
96.04018086,-153.42260000
96.08018086,-151.65870000
96.12018086,-149.89470000
96.16018086,-148.13070000
96.20018086,-148.13070000
96.24018086,-148.13070000
96.28018086,-144.60280000
96.32018086,-146.36680000
96.36018086,-144.60280000
96.40018086,-142.83880000
96.44018086,-141.07490000
96.48018086,-141.07490000
96.52018086,-139.31090000
96.56018086,-139.31090000
96.60018086,-137.54080000
96.64018086,-135.77680000
96.68018086,-134.01290000
96.72018086,-134.01290000
96.76018086,-132.24890000
96.80018086,-132.24890000
96.84018086,-130.48490000
96.88018086,-128.72100000
96.92018086,-126.95700000
96.96018086,-126.95700000
97.00018086,-125.19300000
97.04018086,-125.19300000
97.08018086,-123.42910000
97.12018086,-121.66510000
97.16018086,-118.13720000
97.20018086,-118.13720000
97.24018086,-118.13720000
97.28018086,-116.37320000
97.32018086,-112.84520000
97.36018086,-112.84520000
97.40018086,-111.08130000
97.44018086,-111.08130000
97.48018086,-109.31120000
97.52018086,-107.54720000
97.56018085,-105.78330000
97.60018085,-104.01930000
97.64018085,-102.25530000
97.68018085,-102.25530000
97.72018085,-98.72738000
97.76018085,-98.72738000
97.80018085,-96.96341000
97.84018085,-95.19944000
97.88018085,-93.43547000
97.92018085,-91.67150000
97.96018085,-91.67150000
98.00018085,-89.90753000
98.04018085,-88.14356000
98.08018085,-86.37959000
98.12018085,-82.85165000
98.16018085,-82.85165000
98.20018085,-81.08157000
98.24018085,-79.31760000
98.28018085,-77.55363000
98.32018085,-75.78967000
98.36018085,-74.02570000
98.40018085,-74.02570000
98.44018085,-70.49776000
98.48018085,-68.73379000
98.52018085,-68.73379000
98.56018085,-66.96982000
98.60018085,-63.44188000
98.64018085,-61.67791000
98.68018085,-61.67791000
98.72018085,-59.91394000
98.76018085,-58.14997000
98.80018085,-56.38600000
98.84018085,-54.62203000
98.88018085,-52.85195000
98.92018085,-51.08798000
98.96018085,-49.32401000
99.00018085,-45.79607000
99.04018085,-47.56004000
99.08018085,-45.79607000
99.12018085,-40.50417000
99.16018085,-40.50417000
99.20018084,-38.74020000
99.24018084,-36.97623000
99.28018084,-35.21225000
99.32018084,-33.44828000
99.36018084,-31.68431000
99.40018084,-29.92035000
99.44018084,-28.15638000
99.48018084,-26.39241000
99.52018084,-24.62233000
99.56018084,-22.85836000
99.60018084,-21.09439000
99.64018084,-19.33042000
99.68018084,-17.56645000
99.72018084,-15.80248000
99.76018084,-14.03851000
99.80018084,-12.27454000
99.84018084,-10.51057000
99.88018084,-6.98263500
99.92018084,-5.21866500
99.96018084,-5.21866500
100.00018084,-3.45469500
