Time,Channel B
(us),(mV)

-100.11871927,-3.10068000
-100.07871927,-2.20954000
-100.03871927,-0.42725910
-99.99871927,-0.42725910
-99.95871928,-0.42725910
-99.91871928,0.46388130
-99.87871928,1.35502200
-99.83871928,2.24616200
-99.79871928,3.13730300
-99.75871928,3.13730300
-99.71871928,4.02844300
-99.67871928,4.91958400
-99.63871928,5.81072400
-99.59871928,6.70491600
-99.55871928,7.59605700
-99.51871928,7.59605700
-99.47871928,9.37833800
-99.43871928,10.26948000
-99.39871928,10.26948000
-99.35871928,11.16062000
-99.31871928,12.05481000
-99.27871928,12.94595000
-99.23871928,13.83709000
-99.19871928,13.83709000
-99.15871928,14.72823000
-99.11871928,14.72823000
-99.07871928,15.61937000
-99.03871928,16.51051000
-98.99871928,18.29585000
-98.95871928,18.29585000
-98.91871928,19.18699000
-98.87871928,19.18699000
-98.83871928,20.96927000
-98.79871928,20.96927000
-98.75871928,21.86041000
-98.71871928,21.86041000
-98.67871928,22.75155000
-98.63871928,23.64574000
-98.59871928,24.53688000
-98.55871928,25.42802000
-98.51871928,25.42802000
-98.47871928,26.31916000
-98.43871928,27.21030000
-98.39871928,28.10144000
-98.35871928,28.99564000
-98.31871929,28.99564000
-98.27871929,29.88678000
-98.23871929,30.77792000
-98.19871929,31.66906000
-98.15871929,31.66906000
-98.11871929,32.56020000
-98.07871929,32.56020000
-98.03871929,33.45134000
-97.99871929,35.23667000
-97.95871929,35.23667000
-97.91871929,36.12781000
-97.87871929,36.12781000
-97.83871929,37.01895000
-97.79871929,37.91009000
-97.75871929,38.80123000
-97.71871929,38.80123000
-97.67871929,39.69238000
-97.63871929,39.69238000
-97.59871929,40.58657000
-97.55871929,41.47770000
-97.51871929,42.36885000
-97.47871929,42.36885000
-97.43871929,43.25999000
-97.39871929,44.15113000
-97.35871929,44.15113000
-97.31871929,45.04227000
-97.27871929,45.93341000
-97.23871929,45.93341000
-97.19871929,46.82760000
-97.15871929,47.71874000
-97.11871929,46.82760000
-97.07871929,48.60988000
-97.03871929,49.50102000
-96.99871929,49.50102000
-96.95871929,50.39216000
-96.91871929,50.39216000
-96.87871929,51.28331000
-96.83871929,52.17749000
-96.79871929,51.28331000
-96.75871929,53.95978000
-96.71871929,53.95978000
-96.67871930,53.95978000
-96.63871930,53.95978000
-96.59871930,53.95978000
-96.55871930,55.74205000
-96.51871930,56.63320000
-96.47871930,56.63320000
-96.43871930,57.52739000
-96.39871930,57.52739000
-96.35871930,57.52739000
-96.31871930,58.41853000
-96.27871930,58.41853000
-96.23871930,60.20081000
-96.19871930,60.20081000
-96.15871930,60.20081000
-96.11871930,61.09195000
-96.07871930,61.09195000
-96.03871930,61.09195000
-95.99871930,61.98309000
-95.95871930,62.87423000
-95.91871930,63.76843000
-95.87871930,63.76843000
-95.83871930,63.76843000
-95.79871930,64.65956000
-95.75871930,64.65956000
-95.71871930,64.65956000
-95.67871930,64.65956000
-95.63871930,64.65956000
-95.59871930,65.55070000
-95.55871930,65.55070000
-95.51871930,66.44184000
-95.47871930,67.33298000
-95.43871930,67.33298000
-95.39871930,68.22413000
-95.35871930,68.22413000
-95.31871930,68.22413000
-95.27871930,68.22413000
-95.23871930,69.11832000
-95.19871930,69.11832000
-95.15871930,69.11832000
-95.11871930,69.11832000
-95.07871930,70.90060000
-95.03871931,70.90060000
-94.99871931,70.90060000
-94.95871931,70.90060000
-94.91871931,70.90060000
-94.87871931,71.79174000
-94.83871931,71.79174000
-94.79871931,71.79174000
-94.75871931,71.79174000
-94.71871931,72.68288000
-94.67871931,72.68288000
-94.63871931,71.79174000
-94.59871931,72.68288000
-94.55871931,72.68288000
-94.51871931,73.57403000
-94.47871931,73.57403000
-94.43871931,73.57403000
-94.39871931,74.46516000
-94.35871931,73.57403000
-94.31871931,74.46516000
-94.27871931,74.46516000
-94.23871931,74.46516000
-94.19871931,74.46516000
-94.15871931,74.46516000
-94.11871931,74.46516000
-94.07871931,74.46516000
-94.03871931,75.35935000
-93.99871931,75.35935000
-93.95871931,74.46516000
-93.91871931,75.35935000
-93.87871931,76.25050000
-93.83871931,74.46516000
-93.79871931,74.46516000
-93.75871931,75.35935000
-93.71871931,75.35935000
-93.67871931,75.35935000
-93.63871931,75.35935000
-93.59871931,75.35935000
-93.55871931,75.35935000
-93.51871931,75.35935000
-93.47871931,75.35935000
-93.43871931,75.35935000
-93.39871932,75.35935000
-93.35871932,75.35935000
-93.31871932,75.35935000
-93.27871932,75.35935000
-93.23871932,75.35935000
-93.19871932,75.35935000
-93.15871932,75.35935000
-93.11871932,75.35935000
-93.07871932,75.35935000
-93.03871932,75.35935000
-92.99871932,75.35935000
-92.95871932,75.35935000
-92.91871932,74.46516000
-92.87871932,74.46516000
-92.83871932,74.46516000
-92.79871932,74.46516000
-92.75871932,74.46516000
-92.71871932,74.46516000
-92.67871932,74.46516000
-92.63871932,74.46516000
-92.59871932,73.57403000
-92.55871932,73.57403000
-92.51871932,73.57403000
-92.47871932,72.68288000
-92.43871932,72.68288000
-92.39871932,72.68288000
-92.35871932,72.68288000
-92.31871932,71.79174000
-92.27871932,71.79174000
-92.23871932,71.79174000
-92.19871932,71.79174000
-92.15871932,71.79174000
-92.11871932,70.90060000
-92.07871932,70.90060000
-92.03871932,70.90060000
-91.99871932,70.00946000
-91.95871932,70.00946000
-91.91871932,70.00946000
-91.87871932,69.11832000
-91.83871932,69.11832000
-91.79871932,69.11832000
-91.75871932,68.22413000
-91.71871933,68.22413000
-91.67871933,68.22413000
-91.63871933,68.22413000
-91.59871933,67.33298000
-91.55871933,67.33298000
-91.51871933,67.33298000
-91.47871933,66.44184000
-91.43871933,65.55070000
-91.39871933,64.65956000
-91.35871933,64.65956000
-91.31871933,64.65956000
-91.27871933,64.65956000
-91.23871933,64.65956000
-91.19871933,63.76843000
-91.15871933,63.76843000
-91.11871933,62.87423000
-91.07871933,61.98309000
-91.03871933,61.09195000
-90.99871933,61.09195000
-90.95871933,61.09195000
-90.91871933,60.20081000
-90.87871933,60.20081000
-90.83871933,60.20081000
-90.79871933,59.30967000
-90.75871933,58.41853000
-90.71871933,57.52739000
-90.67871933,57.52739000
-90.63871933,57.52739000
-90.59871933,57.52739000
-90.55871933,56.63320000
-90.51871933,56.63320000
-90.47871933,54.85092000
-90.43871933,54.85092000
-90.39871933,54.85092000
-90.35871933,53.95978000
-90.31871933,53.95978000
-90.27871933,53.06863000
-90.23871933,53.06863000
-90.19871933,53.06863000
-90.15871933,51.28331000
-90.11871933,50.39216000
-90.07871934,50.39216000
-90.03871934,49.50102000
-89.99871934,49.50102000
-89.95871934,48.60988000
-89.91871934,47.71874000
-89.87871934,46.82760000
-89.83871934,46.82760000
-89.79871934,45.93341000
-89.75871934,45.93341000
-89.71871934,45.04227000
-89.67871934,44.15113000
-89.63871934,43.25999000
-89.59871934,43.25999000
-89.55871934,43.25999000
-89.51871934,42.36885000
-89.47871934,41.47770000
-89.43871934,40.58657000
-89.39871934,39.69238000
-89.35871934,39.69238000
-89.31871934,39.69238000
-89.27871934,38.80123000
-89.23871934,37.01895000
-89.19871934,37.01895000
-89.15871934,36.12781000
-89.11871934,36.12781000
-89.07871934,35.23667000
-89.03871934,35.23667000
-88.99871934,33.45134000
-88.95871934,32.56020000
-88.91871934,32.56020000
-88.87871934,31.66906000
-88.83871934,31.66906000
-88.79871934,29.88678000
-88.75871934,29.88678000
-88.71871934,28.99564000
-88.67871934,28.99564000
-88.63871934,28.10144000
-88.59871934,27.21030000
-88.55871934,26.31916000
-88.51871934,25.42802000
-88.47871934,24.53688000
-88.43871935,24.53688000
-88.39871935,23.64574000
-88.35871935,22.75155000
-88.31871935,21.86041000
-88.27871935,21.86041000
-88.23871935,20.96927000
-88.19871935,20.07813000
-88.15871935,19.18699000
-88.11871935,18.29585000
-88.07871935,18.29585000
-88.03871935,17.40165000
-87.99871935,16.51051000
-87.95871935,15.61937000
-87.91871935,15.61937000
-87.87871935,14.72823000
-87.83871935,13.83709000
-87.79871935,12.05481000
-87.75871935,12.05481000
-87.71871935,11.16062000
-87.67871935,11.16062000
-87.63871935,10.26948000
-87.59871935,8.48719700
-87.55871935,8.48719700
-87.51871935,7.59605700
-87.47871935,7.59605700
-87.43871935,6.70491600
-87.39871935,5.81072400
-87.35871935,4.02844300
-87.31871935,4.02844300
-87.27871935,4.02844300
-87.23871935,3.13730300
-87.19871935,3.13730300
-87.15871935,1.35502200
-87.11871935,0.46388130
-87.07871935,1.35502200
-87.03871935,0.46388130
-86.99871935,-3.10068000
-86.95871935,-2.20954000
-86.91871935,-3.10068000
-86.87871935,-3.10068000
-86.83871935,-3.99182100
-86.79871936,-4.88296100
-86.75871936,-5.77715400
-86.71871936,-6.66829400
-86.67871936,-6.66829400
-86.63871936,-7.55943400
-86.59871936,-9.34171500
-86.55871936,-9.34171500
-86.51871936,-10.23286000
-86.47871936,-11.12705000
-86.43871936,-12.01819000
-86.39871936,-12.90933000
-86.35871936,-13.80047000
-86.31871936,-13.80047000
-86.27871936,-14.69161000
-86.23871936,-14.69161000
-86.19871936,-16.47389000
-86.15871936,-16.47389000
-86.11871936,-17.36808000
-86.07871936,-18.25922000
-86.03871936,-18.25922000
-85.99871936,-18.25922000
-85.95871936,-20.04151000
-85.91871936,-20.93265000
-85.87871936,-20.93265000
-85.83871936,-21.82379000
-85.79871936,-21.82379000
-85.75871936,-24.50026000
-85.71871936,-22.71798000
-85.67871936,-25.39140000
-85.63871936,-25.39140000
-85.59871936,-26.28254000
-85.55871936,-27.17368000
-85.51871936,-27.17368000
-85.47871936,-28.06787000
-85.43871936,-28.95901000
-85.39871936,-28.95901000
-85.35871936,-30.74129000
-85.31871936,-30.74129000
-85.27871936,-31.63244000
-85.23871936,-31.63244000
-85.19871936,-32.52357000
-85.15871937,-33.41471000
-85.11871937,-34.30891000
-85.07871937,-35.20005000
-85.03871937,-35.20005000
-84.99871937,-35.20005000
-84.95871937,-36.09119000
-84.91871937,-37.87347000
-84.87871937,-37.87347000
-84.83871937,-37.87347000
-84.79871937,-38.76461000
-84.75871937,-39.65880000
-84.71871937,-39.65880000
-84.67871937,-39.65880000
-84.63871937,-41.44109000
-84.59871937,-41.44109000
-84.55871937,-42.33222000
-84.51871937,-42.33222000
-84.47871937,-43.22336000
-84.43871937,-43.22336000
-84.39871937,-43.22336000
-84.35871937,-45.00565000
-84.31871937,-45.00565000
-84.27871937,-45.89984000
-84.23871937,-45.89984000
-84.19871937,-46.79098000
-84.15871937,-46.79098000
-84.11871937,-47.68212000
-84.07871937,-48.57326000
-84.03871937,-49.46440000
-83.99871937,-49.46440000
-83.95871937,-49.46440000
-83.91871937,-50.35554000
-83.87871937,-50.35554000
-83.83871937,-52.14087000
-83.79871937,-52.14087000
-83.75871937,-53.03201000
-83.71871937,-53.03201000
-83.67871937,-53.03201000
-83.63871937,-53.03201000
-83.59871937,-53.92315000
-83.55871937,-54.81429000
-83.51871938,-54.81429000
-83.47871938,-55.70544000
-83.43871938,-56.59963000
-83.39871938,-56.59963000
-83.35871938,-56.59963000
-83.31871938,-56.59963000
-83.27871938,-56.59963000
-83.23871938,-57.49076000
-83.19871938,-57.49076000
-83.15871938,-59.27305000
-83.11871938,-59.27305000
-83.07871938,-59.27305000
-83.03871938,-60.16419000
-82.99871938,-60.16419000
-82.95871938,-60.16419000
-82.91871938,-60.16419000
-82.87871938,-61.05533000
-82.83871938,-61.05533000
-82.79871938,-61.05533000
-82.75871938,-61.05533000
-82.71871938,-62.84066000
-82.67871938,-61.94647000
-82.63871938,-63.73180000
-82.59871938,-62.84066000
-82.55871938,-62.84066000
-82.51871938,-63.73180000
-82.47871938,-63.73180000
-82.43871938,-63.73180000
-82.39871938,-64.62294000
-82.35871938,-64.62294000
-82.31871938,-64.62294000
-82.27871938,-65.51408000
-82.23871938,-65.51408000
-82.19871938,-64.62294000
-82.15871938,-65.51408000
-82.11871938,-66.40523000
-82.07871938,-66.40523000
-82.03871938,-66.40523000
-81.99871938,-66.40523000
-81.95871938,-66.40523000
-81.91871938,-67.29636000
-81.87871939,-66.40523000
-81.83871939,-67.29636000
-81.79871939,-68.19056000
-81.75871939,-67.29636000
-81.71871939,-67.29636000
-81.67871939,-67.29636000
-81.63871939,-68.19056000
-81.59871939,-68.19056000
-81.55871939,-68.19056000
-81.51871939,-67.29636000
-81.47871939,-68.19056000
-81.43871939,-68.19056000
-81.39871939,-68.19056000
-81.35871939,-68.19056000
-81.31871939,-68.19056000
-81.27871939,-68.19056000
-81.23871939,-68.19056000
-81.19871939,-69.08170000
-81.15871939,-68.19056000
-81.11871939,-68.19056000
-81.07871939,-68.19056000
-81.03871939,-68.19056000
-80.99871939,-68.19056000
-80.95871939,-68.19056000
-80.91871939,-68.19056000
-80.87871939,-68.19056000
-80.83871939,-68.19056000
-80.79871939,-68.19056000
-80.75871939,-68.19056000
-80.71871939,-68.19056000
-80.67871939,-68.19056000
-80.63871939,-68.19056000
-80.59871939,-68.19056000
-80.55871939,-68.19056000
-80.51871939,-68.19056000
-80.47871939,-67.29636000
-80.43871939,-67.29636000
-80.39871939,-67.29636000
-80.35871939,-67.29636000
-80.31871939,-67.29636000
-80.27871939,-67.29636000
-80.23871939,-67.29636000
-80.19871940,-67.29636000
-80.15871940,-66.40523000
-80.11871940,-67.29636000
-80.07871940,-67.29636000
-80.03871940,-66.40523000
-79.99871940,-66.40523000
-79.95871940,-66.40523000
-79.91871940,-66.40523000
-79.87871940,-65.51408000
-79.83871940,-65.51408000
-79.79871940,-64.62294000
-79.75871940,-64.62294000
-79.71871940,-64.62294000
-79.67871940,-64.62294000
-79.63871940,-63.73180000
-79.59871940,-63.73180000
-79.55871940,-63.73180000
-79.51871940,-63.73180000
-79.47871940,-63.73180000
-79.43871940,-63.73180000
-79.39871940,-62.84066000
-79.35871940,-62.84066000
-79.31871940,-61.94647000
-79.27871940,-61.05533000
-79.23871940,-61.94647000
-79.19871940,-61.05533000
-79.15871940,-60.16419000
-79.11871940,-61.05533000
-79.07871940,-60.16419000
-79.03871940,-58.38191000
-78.99871940,-60.16419000
-78.95871940,-60.16419000
-78.91871940,-59.27305000
-78.87871940,-58.38191000
-78.83871940,-57.49076000
-78.79871940,-57.49076000
-78.75871940,-56.59963000
-78.71871940,-56.59963000
-78.67871940,-56.59963000
-78.63871940,-56.59963000
-78.59871940,-55.70544000
-78.55871941,-55.70544000
-78.51871941,-54.81429000
-78.47871941,-53.92315000
-78.43871941,-53.92315000
-78.39871941,-53.03201000
-78.35871941,-53.03201000
-78.31871941,-53.03201000
-78.27871941,-52.14087000
-78.23871941,-52.14087000
-78.19871941,-50.35554000
-78.15871941,-50.35554000
-78.11871941,-50.35554000
-78.07871941,-49.46440000
-78.03871941,-49.46440000
-77.99871941,-48.57326000
-77.95871941,-47.68212000
-77.91871941,-47.68212000
-77.87871941,-46.79098000
-77.83871941,-46.79098000
-77.79871941,-45.89984000
-77.75871941,-45.89984000
-77.71871941,-45.00565000
-77.67871941,-44.11451000
-77.63871941,-45.00565000
-77.59871941,-43.22336000
-77.55871941,-42.33222000
-77.51871941,-42.33222000
-77.47871941,-42.33222000
-77.43871941,-41.44109000
-77.39871941,-40.54994000
-77.35871941,-39.65880000
-77.31871941,-39.65880000
-77.27871941,-38.76461000
-77.23871941,-38.76461000
-77.19871941,-37.87347000
-77.15871941,-37.87347000
-77.11871941,-36.09119000
-77.07871941,-36.09119000
-77.03871941,-35.20005000
-76.99871941,-35.20005000
-76.95871941,-35.20005000
-76.91871942,-33.41471000
-76.87871942,-32.52357000
-76.83871942,-31.63244000
-76.79871942,-31.63244000
-76.75871942,-30.74129000
-76.71871942,-30.74129000
-76.67871942,-29.85015000
-76.63871942,-28.95901000
-76.59871942,-28.06787000
-76.55871942,-28.06787000
-76.51871942,-27.17368000
-76.47871942,-27.17368000
-76.43871942,-25.39140000
-76.39871942,-25.39140000
-76.35871942,-24.50026000
-76.31871942,-24.50026000
-76.27871942,-23.60912000
-76.23871942,-21.82379000
-76.19871942,-21.82379000
-76.15871942,-20.93265000
-76.11871942,-20.93265000
-76.07871942,-20.04151000
-76.03871942,-19.15036000
-75.99871942,-18.25922000
-75.95871942,-17.36808000
-75.91871942,-17.36808000
-75.87871942,-16.47389000
-75.83871942,-15.58275000
-75.79871942,-14.69161000
-75.75871942,-13.80047000
-75.71871942,-13.80047000
-75.67871942,-13.80047000
-75.63871942,-12.01819000
-75.59871942,-11.12705000
-75.55871942,-11.12705000
-75.51871942,-10.23286000
-75.47871942,-9.34171500
-75.43871942,-8.45057600
-75.39871942,-8.45057600
-75.35871942,-7.55943400
-75.31871942,-6.66829400
-75.27871943,-5.77715400
-75.23871943,-4.88296100
-75.19871943,-3.99182100
-75.15871943,-3.10068000
-75.11871943,-3.10068000
-75.07871943,-2.20954000
-75.03871943,-1.31840000
-74.99871943,-0.42725910
-74.95871943,-0.42725910
-74.91871943,0.46388130
-74.87871943,3.13730300
-74.83871943,2.24616200
-74.79871943,2.24616200
-74.75871943,3.13730300
-74.71871943,4.02844300
-74.67871943,4.91958400
-74.63871943,5.81072400
-74.59871943,6.70491600
-74.55871943,7.59605700
-74.51871943,7.59605700
-74.47871943,8.48719700
-74.43871943,10.26948000
-74.39871943,10.26948000
-74.35871943,11.16062000
-74.31871943,11.16062000
-74.27871943,12.05481000
-74.23871943,13.83709000
-74.19871943,13.83709000
-74.15871943,14.72823000
-74.11871943,15.61937000
-74.07871943,16.51051000
-74.03871943,17.40165000
-73.99871943,17.40165000
-73.95871943,18.29585000
-73.91871943,18.29585000
-73.87871943,19.18699000
-73.83871943,20.96927000
-73.79871943,20.96927000
-73.75871943,21.86041000
-73.71871943,21.86041000
-73.67871943,22.75155000
-73.63871944,24.53688000
-73.59871944,24.53688000
-73.55871944,25.42802000
-73.51871944,25.42802000
-73.47871944,26.31916000
-73.43871944,27.21030000
-73.39871944,28.10144000
-73.35871944,28.99564000
-73.31871944,28.99564000
-73.27871944,29.88678000
-73.23871944,30.77792000
-73.19871944,31.66906000
-73.15871944,31.66906000
-73.11871944,32.56020000
-73.07871944,33.45134000
-73.03871944,33.45134000
-72.99871944,34.34248000
-72.95871944,35.23667000
-72.91871944,36.12781000
-72.87871944,36.12781000
-72.83871944,37.01895000
-72.79871944,37.91009000
-72.75871944,38.80123000
-72.71871944,38.80123000
-72.67871944,39.69238000
-72.63871944,39.69238000
-72.59871944,40.58657000
-72.55871944,40.58657000
-72.51871944,42.36885000
-72.47871944,42.36885000
-72.43871944,42.36885000
-72.39871944,45.93341000
-72.35871944,44.15113000
-72.31871944,43.25999000
-72.27871944,45.93341000
-72.23871944,46.82760000
-72.19871944,46.82760000
-72.15871944,46.82760000
-72.11871944,47.71874000
-72.07871944,47.71874000
-72.03871944,49.50102000
-71.99871945,50.39216000
-71.95871945,50.39216000
-71.91871945,50.39216000
-71.87871945,51.28331000
-71.83871945,53.06863000
-71.79871945,53.06863000
-71.75871945,53.06863000
-71.71871945,53.95978000
-71.67871945,53.95978000
-71.63871945,53.95978000
-71.59871945,54.85092000
-71.55871945,55.74205000
-71.51871945,56.63320000
-71.47871945,56.63320000
-71.43871945,57.52739000
-71.39871945,57.52739000
-71.35871945,57.52739000
-71.31871945,58.41853000
-71.27871945,58.41853000
-71.23871945,58.41853000
-71.19871945,60.20081000
-71.15871945,61.09195000
-71.11871945,61.09195000
-71.07871945,61.09195000
-71.03871945,61.98309000
-70.99871945,61.98309000
-70.95871945,61.98309000
-70.91871945,62.87423000
-70.87871945,63.76843000
-70.83871945,63.76843000
-70.79871945,63.76843000
-70.75871945,64.65956000
-70.71871945,64.65956000
-70.67871945,64.65956000
-70.63871945,65.55070000
-70.59871945,66.44184000
-70.55871945,66.44184000
-70.51871945,67.33298000
-70.47871945,67.33298000
-70.43871945,67.33298000
-70.39871945,68.22413000
-70.35871946,68.22413000
-70.31871946,68.22413000
-70.27871946,68.22413000
-70.23871946,69.11832000
-70.19871946,68.22413000
-70.15871946,69.11832000
-70.11871946,69.11832000
-70.07871946,70.00946000
-70.03871946,70.00946000
-69.99871946,70.90060000
-69.95871946,70.90060000
-69.91871946,70.90060000
-69.87871946,70.90060000
-69.83871946,71.79174000
-69.79871946,71.79174000
-69.75871946,71.79174000
-69.71871946,71.79174000
-69.67871946,72.68288000
-69.63871946,72.68288000
-69.59871946,72.68288000
-69.55871946,73.57403000
-69.51871946,73.57403000
-69.47871946,73.57403000
-69.43871946,74.46516000
-69.39871946,74.46516000
-69.35871946,74.46516000
-69.31871946,74.46516000
-69.27871946,74.46516000
-69.23871946,74.46516000
-69.19871946,74.46516000
-69.15871946,74.46516000
-69.11871946,74.46516000
-69.07871946,74.46516000
-69.03871946,74.46516000
-68.99871946,75.35935000
-68.95871946,74.46516000
-68.91871946,75.35935000
-68.87871946,75.35935000
-68.83871946,75.35935000
-68.79871946,74.46516000
-68.75871946,75.35935000
-68.71871947,75.35935000
-68.67871947,75.35935000
-68.63871947,75.35935000
-68.59871947,75.35935000
-68.55871947,75.35935000
-68.51871947,75.35935000
-68.47871947,75.35935000
-68.43871947,75.35935000
-68.39871947,75.35935000
-68.35871947,75.35935000
-68.31871947,75.35935000
-68.27871947,75.35935000
-68.23871947,75.35935000
-68.19871947,75.35935000
-68.15871947,75.35935000
-68.11871947,75.35935000
-68.07871947,75.35935000
-68.03871947,75.35935000
-67.99871947,74.46516000
-67.95871947,74.46516000
-67.91871947,74.46516000
-67.87871947,74.46516000
-67.83871947,74.46516000
-67.79871947,74.46516000
-67.75871947,74.46516000
-67.71871947,73.57403000
-67.67871947,73.57403000
-67.63871947,73.57403000
-67.59871947,73.57403000
-67.55871947,72.68288000
-67.51871947,72.68288000
-67.47871947,73.57403000
-67.43871947,71.79174000
-67.39871947,72.68288000
-67.35871947,71.79174000
-67.31871947,71.79174000
-67.27871947,71.79174000
-67.23871947,71.79174000
-67.19871947,71.79174000
-67.15871947,71.79174000
-67.11871947,71.79174000
-67.07871947,70.90060000
-67.03871948,70.90060000
-66.99871948,70.90060000
-66.95871948,70.00946000
-66.91871948,70.00946000
-66.87871948,69.11832000
-66.83871948,68.22413000
-66.79871948,68.22413000
-66.75871948,68.22413000
-66.71871948,68.22413000
-66.67871948,68.22413000
-66.63871948,67.33298000
-66.59871948,67.33298000
-66.55871948,67.33298000
-66.51871948,66.44184000
-66.47871948,66.44184000
-66.43871948,65.55070000
-66.39871948,65.55070000
-66.35871948,64.65956000
-66.31871948,64.65956000
-66.27871948,64.65956000
-66.23871948,64.65956000
-66.19871948,63.76843000
-66.15871948,62.87423000
-66.11871948,62.87423000
-66.07871948,61.98309000
-66.03871948,61.98309000
-65.99871948,61.09195000
-65.95871948,61.09195000
-65.91871948,61.09195000
-65.87871948,60.20081000
-65.83871948,60.20081000
-65.79871948,58.41853000
-65.75871948,58.41853000
-65.71871948,58.41853000
-65.67871948,57.52739000
-65.63871948,57.52739000
-65.59871948,57.52739000
-65.55871948,56.63320000
-65.51871948,55.74205000
-65.47871948,54.85092000
-65.43871948,54.85092000
-65.39871949,53.95978000
-65.35871949,53.95978000
-65.31871949,53.06863000
-65.27871949,53.06863000
-65.23871949,52.17749000
-65.19871949,52.17749000
-65.15871949,50.39216000
-65.11871949,50.39216000
-65.07871949,50.39216000
-65.03871949,49.50102000
-64.99871949,48.60988000
-64.95871949,48.60988000
-64.91871949,47.71874000
-64.87871949,46.82760000
-64.83871949,46.82760000
-64.79871949,45.93341000
-64.75871949,45.04227000
-64.71871949,45.04227000
-64.67871949,44.15113000
-64.63871949,43.25999000
-64.59871949,42.36885000
-64.55871949,43.25999000
-64.51871949,42.36885000
-64.47871949,41.47770000
-64.43871949,40.58657000
-64.39871949,39.69238000
-64.35871949,38.80123000
-64.31871949,38.80123000
-64.27871949,37.01895000
-64.23871949,39.69238000
-64.19871949,36.12781000
-64.15871949,35.23667000
-64.11871949,36.12781000
-64.07871949,36.12781000
-64.03871949,35.23667000
-63.99871949,33.45134000
-63.95871949,32.56020000
-63.91871949,32.56020000
-63.87871949,31.66906000
-63.83871949,31.66906000
-63.79871949,29.88678000
-63.75871950,28.99564000
-63.71871950,28.99564000
-63.67871950,28.99564000
-63.63871950,28.10144000
-63.59871950,27.21030000
-63.55871950,26.31916000
-63.51871950,25.42802000
-63.47871950,25.42802000
-63.43871950,24.53688000
-63.39871950,23.64574000
-63.35871950,22.75155000
-63.31871950,21.86041000
-63.27871950,21.86041000
-63.23871950,20.96927000
-63.19871950,20.07813000
-63.15871950,19.18699000
-63.11871950,18.29585000
-63.07871950,18.29585000
-63.03871950,17.40165000
-62.99871950,15.61937000
-62.95871950,15.61937000
-62.91871950,14.72823000
-62.87871950,13.83709000
-62.83871950,13.83709000
-62.79871950,12.94595000
-62.75871950,12.05481000
-62.71871950,11.16062000
-62.67871950,11.16062000
-62.63871950,10.26948000
-62.59871950,10.26948000
-62.55871950,8.48719700
-62.51871950,7.59605700
-62.47871950,7.59605700
-62.43871950,6.70491600
-62.39871950,6.70491600
-62.35871950,4.02844300
-62.31871950,4.02844300
-62.27871950,4.02844300
-62.23871950,3.13730300
-62.19871950,1.35502200
-62.15871950,1.35502200
-62.11871951,0.46388130
-62.07871951,0.46388130
-62.03871951,-0.42725910
-61.99871951,-1.31840000
-61.95871951,-2.20954000
-61.91871951,-3.10068000
-61.87871951,-3.99182100
-61.83871951,-3.99182100
-61.79871951,-4.88296100
-61.75871951,-6.66829400
-61.71871951,-6.66829400
-61.67871951,-7.55943400
-61.63871951,-7.55943400
-61.59871951,-9.34171500
-61.55871951,-10.23286000
-61.51871951,-10.23286000
-61.47871951,-11.12705000
-61.43871951,-11.12705000
-61.39871951,-12.01819000
-61.35871951,-12.90933000
-61.31871951,-13.80047000
-61.27871951,-14.69161000
-61.23871951,-14.69161000
-61.19871951,-15.58275000
-61.15871951,-16.47389000
-61.11871951,-17.36808000
-61.07871951,-17.36808000
-61.03871951,-18.25922000
-60.99871951,-19.15036000
-60.95871951,-20.04151000
-60.91871951,-20.93265000
-60.87871951,-20.93265000
-60.83871951,-21.82379000
-60.79871951,-22.71798000
-60.75871951,-23.60912000
-60.71871951,-24.50026000
-60.67871951,-24.50026000
-60.63871951,-25.39140000
-60.59871951,-26.28254000
-60.55871951,-27.17368000
-60.51871951,-27.17368000
-60.47871952,-28.06787000
-60.43871952,-28.95901000
-60.39871952,-28.95901000
-60.35871952,-29.85015000
-60.31871952,-30.74129000
-60.27871952,-31.63244000
-60.23871952,-31.63244000
-60.19871952,-31.63244000
-60.15871952,-32.52357000
-60.11871952,-33.41471000
-60.07871952,-35.20005000
-60.03871952,-35.20005000
-59.99871952,-35.20005000
-59.95871952,-36.09119000
-59.91871952,-37.87347000
-59.87871952,-36.98233000
-59.83871952,-37.87347000
-59.79871952,-38.76461000
-59.75871952,-38.76461000
-59.71871952,-39.65880000
-59.67871952,-40.54994000
-59.63871952,-41.44109000
-59.59871952,-41.44109000
-59.55871952,-42.33222000
-59.51871952,-42.33222000
-59.47871952,-43.22336000
-59.43871952,-43.22336000
-59.39871952,-44.11451000
-59.35871952,-45.00565000
-59.31871952,-45.00565000
-59.27871952,-45.89984000
-59.23871952,-45.89984000
-59.19871952,-46.79098000
-59.15871952,-46.79098000
-59.11871952,-47.68212000
-59.07871952,-48.57326000
-59.03871952,-48.57326000
-58.99871952,-49.46440000
-58.95871952,-49.46440000
-58.91871952,-50.35554000
-58.87871952,-50.35554000
-58.83871953,-51.24973000
-58.79871953,-52.14087000
-58.75871953,-52.14087000
-58.71871953,-53.03201000
-58.67871953,-53.03201000
-58.63871953,-53.03201000
-58.59871953,-53.92315000
-58.55871953,-54.81429000
-58.51871953,-54.81429000
-58.47871953,-55.70544000
-58.43871953,-55.70544000
-58.39871953,-56.59963000
-58.35871953,-56.59963000
-58.31871953,-56.59963000
-58.27871953,-57.49076000
-58.23871953,-57.49076000
-58.19871953,-57.49076000
-58.15871953,-59.27305000
-58.11871953,-59.27305000
-58.07871953,-60.16419000
-58.03871953,-60.16419000
-57.99871953,-60.16419000
-57.95871953,-60.16419000
-57.91871953,-60.16419000
-57.87871953,-61.05533000
-57.83871953,-61.05533000
-57.79871953,-61.05533000
-57.75871953,-61.05533000
-57.71871953,-61.94647000
-57.67871953,-62.84066000
-57.63871953,-62.84066000
-57.59871953,-62.84066000
-57.55871953,-63.73180000
-57.51871953,-63.73180000
-57.47871953,-63.73180000
-57.43871953,-61.94647000
-57.39871953,-66.40523000
-57.35871953,-64.62294000
-57.31871953,-63.73180000
-57.27871953,-64.62294000
-57.23871953,-66.40523000
-57.19871954,-66.40523000
-57.15871954,-66.40523000
-57.11871954,-66.40523000
-57.07871954,-66.40523000
-57.03871954,-66.40523000
-56.99871954,-66.40523000
-56.95871954,-67.29636000
-56.91871954,-67.29636000
-56.87871954,-67.29636000
-56.83871954,-67.29636000
-56.79871954,-67.29636000
-56.75871954,-67.29636000
-56.71871954,-67.29636000
-56.67871954,-67.29636000
-56.63871954,-68.19056000
-56.59871954,-68.19056000
-56.55871954,-67.29636000
-56.51871954,-68.19056000
-56.47871954,-68.19056000
-56.43871954,-68.19056000
-56.39871954,-68.19056000
-56.35871954,-68.19056000
-56.31871954,-68.19056000
-56.27871954,-68.19056000
-56.23871954,-68.19056000
-56.19871954,-68.19056000
-56.15871954,-69.08170000
-56.11871954,-68.19056000
-56.07871954,-68.19056000
-56.03871954,-69.08170000
-55.99871954,-69.08170000
-55.95871954,-69.08170000
-55.91871954,-68.19056000
-55.87871954,-68.19056000
-55.83871954,-68.19056000
-55.79871954,-68.19056000
-55.75871954,-68.19056000
-55.71871954,-68.19056000
-55.67871954,-68.19056000
-55.63871954,-68.19056000
-55.59871954,-68.19056000
-55.55871954,-68.19056000
-55.51871955,-68.19056000
-55.47871955,-68.19056000
-55.43871955,-68.19056000
-55.39871955,-68.19056000
-55.35871955,-68.19056000
-55.31871955,-67.29636000
-55.27871955,-67.29636000
-55.23871955,-67.29636000
-55.19871955,-67.29636000
-55.15871955,-67.29636000
-55.11871955,-67.29636000
-55.07871955,-66.40523000
-55.03871955,-67.29636000
-54.99871955,-66.40523000
-54.95871955,-66.40523000
-54.91871955,-66.40523000
-54.87871955,-66.40523000
-54.83871955,-65.51408000
-54.79871955,-64.62294000
-54.75871955,-65.51408000
-54.71871955,-64.62294000
-54.67871955,-64.62294000
-54.63871955,-64.62294000
-54.59871955,-63.73180000
-54.55871955,-64.62294000
-54.51871955,-63.73180000
-54.47871955,-63.73180000
-54.43871955,-62.84066000
-54.39871955,-63.73180000
-54.35871955,-62.84066000
-54.31871955,-61.94647000
-54.27871955,-61.05533000
-54.23871955,-61.05533000
-54.19871955,-61.05533000
-54.15871955,-61.05533000
-54.11871955,-60.16419000
-54.07871955,-60.16419000
-54.03871955,-60.16419000
-53.99871955,-60.16419000
-53.95871955,-59.27305000
-53.91871955,-59.27305000
-53.87871956,-58.38191000
-53.83871956,-57.49076000
-53.79871956,-57.49076000
-53.75871956,-57.49076000
-53.71871956,-56.59963000
-53.67871956,-56.59963000
-53.63871956,-56.59963000
-53.59871956,-55.70544000
-53.55871956,-55.70544000
-53.51871956,-54.81429000
-53.47871956,-53.92315000
-53.43871956,-53.92315000
-53.39871956,-53.92315000
-53.35871956,-53.03201000
-53.31871956,-53.03201000
-53.27871956,-52.14087000
-53.23871956,-52.14087000
-53.19871956,-50.35554000
-53.15871956,-50.35554000
-53.11871956,-50.35554000
-53.07871956,-49.46440000
-53.03871956,-49.46440000
-52.99871956,-49.46440000
-52.95871956,-48.57326000
-52.91871956,-47.68212000
-52.87871956,-46.79098000
-52.83871956,-46.79098000
-52.79871956,-46.79098000
-52.75871956,-45.89984000
-52.71871956,-45.00565000
-52.67871956,-45.00565000
-52.63871956,-44.11451000
-52.59871956,-43.22336000
-52.55871956,-43.22336000
-52.51871956,-42.33222000
-52.47871956,-42.33222000
-52.43871956,-41.44109000
-52.39871956,-40.54994000
-52.35871956,-39.65880000
-52.31871956,-39.65880000
-52.27871956,-38.76461000
-52.23871957,-37.87347000
-52.19871957,-37.87347000
-52.15871957,-37.87347000
-52.11871957,-36.09119000
-52.07871957,-36.09119000
-52.03871957,-35.20005000
-51.99871957,-35.20005000
-51.95871957,-35.20005000
-51.91871957,-34.30891000
-51.87871957,-32.52357000
-51.83871957,-31.63244000
-51.79871957,-31.63244000
-51.75871957,-31.63244000
-51.71871957,-30.74129000
-51.67871957,-28.95901000
-51.63871957,-28.95901000
-51.59871957,-28.06787000
-51.55871957,-28.06787000
-51.51871957,-28.06787000
-51.47871957,-27.17368000
-51.43871957,-25.39140000
-51.39871957,-24.50026000
-51.35871957,-24.50026000
-51.31871957,-24.50026000
-51.27871957,-23.60912000
-51.23871957,-22.71798000
-51.19871957,-20.93265000
-51.15871957,-20.93265000
-51.11871957,-20.93265000
-51.07871957,-20.04151000
-51.03871957,-18.25922000
-50.99871957,-18.25922000
-50.95871957,-17.36808000
-50.91871957,-17.36808000
-50.87871957,-16.47389000
-50.83871957,-15.58275000
-50.79871957,-14.69161000
-50.75871957,-13.80047000
-50.71871957,-13.80047000
-50.67871957,-13.80047000
-50.63871957,-12.01819000
-50.59871958,-11.12705000
-50.55871958,-10.23286000
-50.51871958,-10.23286000
-50.47871958,-9.34171500
-50.43871958,-8.45057600
-50.39871958,-7.55943400
-50.35871958,-6.66829400
-50.31871958,-6.66829400
-50.27871958,-6.66829400
-50.23871958,-4.88296100
-50.19871958,-3.99182100
-50.15871958,-3.10068000
-50.11871958,-3.10068000
-50.07871958,-2.20954000
-50.03871958,-1.31840000
-49.99871958,-0.42725910
-49.95871958,0.46388130
-49.91871958,0.46388130
-49.87871958,1.35502200
-49.83871958,2.24616200
-49.79871958,3.13730300
-49.75871958,4.02844300
-49.71871958,4.02844300
-49.67871958,4.91958400
-49.63871958,6.70491600
-49.59871958,6.70491600
-49.55871958,7.59605700
-49.51871958,7.59605700
-49.47871958,11.16062000
-49.43871958,8.48719700
-49.39871958,9.37833800
-49.35871958,11.16062000
-49.31871958,11.16062000
-49.27871958,12.05481000
-49.23871958,12.94595000
-49.19871958,13.83709000
-49.15871958,14.72823000
-49.11871958,15.61937000
-49.07871958,15.61937000
-49.03871958,16.51051000
-48.99871958,17.40165000
-48.95871959,18.29585000
-48.91871959,18.29585000
-48.87871959,19.18699000
-48.83871959,20.07813000
-48.79871959,20.96927000
-48.75871959,21.86041000
-48.71871959,21.86041000
-48.67871959,23.64574000
-48.63871959,24.53688000
-48.59871959,24.53688000
-48.55871959,25.42802000
-48.51871959,25.42802000
-48.47871959,26.31916000
-48.43871959,27.21030000
-48.39871959,28.10144000
-48.35871959,28.99564000
-48.31871959,28.99564000
-48.27871959,29.88678000
-48.23871959,30.77792000
-48.19871959,31.66906000
-48.15871959,31.66906000
-48.11871959,32.56020000
-48.07871959,33.45134000
-48.03871959,33.45134000
-47.99871959,34.34248000
-47.95871959,35.23667000
-47.91871959,36.12781000
-47.87871959,36.12781000
-47.83871959,36.12781000
-47.79871959,37.01895000
-47.75871959,38.80123000
-47.71871959,38.80123000
-47.67871959,39.69238000
-47.63871959,40.58657000
-47.59871959,41.47770000
-47.55871959,42.36885000
-47.51871959,42.36885000
-47.47871959,42.36885000
-47.43871959,43.25999000
-47.39871959,44.15113000
-47.35871959,45.04227000
-47.31871960,45.04227000
-47.27871960,45.04227000
-47.23871960,46.82760000
-47.19871960,46.82760000
-47.15871960,46.82760000
-47.11871960,47.71874000
-47.07871960,47.71874000
-47.03871960,48.60988000
-46.99871960,49.50102000
-46.95871960,50.39216000
-46.91871960,50.39216000
-46.87871960,51.28331000
-46.83871960,51.28331000
-46.79871960,53.06863000
-46.75871960,53.06863000
-46.71871960,53.06863000
-46.67871960,53.95978000
-46.63871960,53.95978000
-46.59871960,54.85092000
-46.55871960,54.85092000
-46.51871960,54.85092000
-46.47871960,56.63320000
-46.43871960,57.52739000
-46.39871960,57.52739000
-46.35871960,57.52739000
-46.31871960,58.41853000
-46.27871960,59.30967000
-46.23871960,60.20081000
-46.19871960,60.20081000
-46.15871960,61.09195000
-46.11871960,61.09195000
-46.07871960,61.09195000
-46.03871960,61.09195000
-45.99871960,61.09195000
-45.95871960,61.98309000
-45.91871960,62.87423000
-45.87871960,63.76843000
-45.83871960,63.76843000
-45.79871960,63.76843000
-45.75871960,63.76843000
-45.71871960,64.65956000
-45.67871961,65.55070000
-45.63871961,65.55070000
-45.59871961,65.55070000
-45.55871961,65.55070000
-45.51871961,67.33298000
-45.47871961,67.33298000
-45.43871961,67.33298000
-45.39871961,67.33298000
-45.35871961,68.22413000
-45.31871961,68.22413000
-45.27871961,68.22413000
-45.23871961,70.90060000
-45.19871961,69.11832000
-45.15871961,69.11832000
-45.11871961,70.00946000
-45.07871961,70.00946000
-45.03871961,70.90060000
-44.99871961,70.90060000
-44.95871961,70.90060000
-44.91871961,70.90060000
-44.87871961,70.90060000
-44.83871961,71.79174000
-44.79871961,71.79174000
-44.75871961,71.79174000
-44.71871961,71.79174000
-44.67871961,72.68288000
-44.63871961,72.68288000
-44.59871961,72.68288000
-44.55871961,73.57403000
-44.51871961,72.68288000
-44.47871961,72.68288000
-44.43871961,73.57403000
-44.39871961,73.57403000
-44.35871961,73.57403000
-44.31871961,74.46516000
-44.27871961,74.46516000
-44.23871961,74.46516000
-44.19871961,74.46516000
-44.15871961,74.46516000
-44.11871961,74.46516000
-44.07871961,74.46516000
-44.03871962,75.35935000
-43.99871962,75.35935000
-43.95871962,74.46516000
-43.91871962,75.35935000
-43.87871962,75.35935000
-43.83871962,75.35935000
-43.79871962,74.46516000
-43.75871962,75.35935000
-43.71871962,75.35935000
-43.67871962,75.35935000
-43.63871962,75.35935000
-43.59871962,75.35935000
-43.55871962,75.35935000
-43.51871962,75.35935000
-43.47871962,75.35935000
-43.43871962,75.35935000
-43.39871962,75.35935000
-43.35871962,75.35935000
-43.31871962,75.35935000
-43.27871962,75.35935000
-43.23871962,75.35935000
-43.19871962,75.35935000
-43.15871962,75.35935000
-43.11871962,74.46516000
-43.07871962,75.35935000
-43.03871962,74.46516000
-42.99871962,74.46516000
-42.95871962,75.35935000
-42.91871962,75.35935000
-42.87871962,74.46516000
-42.83871962,74.46516000
-42.79871962,74.46516000
-42.75871962,73.57403000
-42.71871962,71.79174000
-42.67871962,75.35935000
-42.63871962,74.46516000
-42.59871962,73.57403000
-42.55871962,73.57403000
-42.51871962,72.68288000
-42.47871962,73.57403000
-42.43871962,72.68288000
-42.39871962,72.68288000
-42.35871963,71.79174000
-42.31871963,71.79174000
-42.27871963,71.79174000
-42.23871963,71.79174000
-42.19871963,71.79174000
-42.15871963,70.90060000
-42.11871963,70.90060000
-42.07871963,70.90060000
-42.03871963,70.90060000
-41.99871963,70.00946000
-41.95871963,69.11832000
-41.91871963,69.11832000
-41.87871963,68.22413000
-41.83871963,69.11832000
-41.79871963,69.11832000
-41.75871963,69.11832000
-41.71871963,67.33298000
-41.67871963,68.22413000
-41.63871963,67.33298000
-41.59871963,67.33298000
-41.55871963,67.33298000
-41.51871963,66.44184000
-41.47871963,66.44184000
-41.43871963,65.55070000
-41.39871963,64.65956000
-41.35871963,64.65956000
-41.31871963,64.65956000
-41.27871963,64.65956000
-41.23871963,63.76843000
-41.19871963,63.76843000
-41.15871963,63.76843000
-41.11871963,62.87423000
-41.07871963,61.98309000
-41.03871963,61.09195000
-40.99871963,61.09195000
-40.95871963,61.09195000
-40.91871963,61.09195000
-40.87871963,60.20081000
-40.83871963,59.30967000
-40.79871963,59.30967000
-40.75871963,58.41853000
-40.71871964,57.52739000
-40.67871964,57.52739000
-40.63871964,57.52739000
-40.59871964,56.63320000
-40.55871964,56.63320000
-40.51871964,55.74205000
-40.47871964,55.74205000
-40.43871964,54.85092000
-40.39871964,53.95978000
-40.35871964,53.95978000
-40.31871964,53.95978000
-40.27871964,53.06863000
-40.23871964,53.06863000
-40.19871964,52.17749000
-40.15871964,51.28331000
-40.11871964,50.39216000
-40.07871964,50.39216000
-40.03871964,49.50102000
-39.99871964,48.60988000
-39.95871964,47.71874000
-39.91871964,47.71874000
-39.87871964,46.82760000
-39.83871964,46.82760000
-39.79871964,45.93341000
-39.75871964,45.04227000
-39.71871964,44.15113000
-39.67871964,44.15113000
-39.63871964,43.25999000
-39.59871964,43.25999000
-39.55871964,42.36885000
-39.51871964,42.36885000
-39.47871964,40.58657000
-39.43871964,40.58657000
-39.39871964,39.69238000
-39.35871964,39.69238000
-39.31871964,38.80123000
-39.27871964,38.80123000
-39.23871964,37.91009000
-39.19871964,36.12781000
-39.15871964,36.12781000
-39.11871964,36.12781000
-39.07871965,35.23667000
-39.03871965,34.34248000
-38.99871965,33.45134000
-38.95871965,32.56020000
-38.91871965,32.56020000
-38.87871965,31.66906000
-38.83871965,30.77792000
-38.79871965,29.88678000
-38.75871965,29.88678000
-38.71871965,28.99564000
-38.67871965,28.99564000
-38.63871965,28.10144000
-38.59871965,27.21030000
-38.55871965,26.31916000
-38.51871965,25.42802000
-38.47871965,25.42802000
-38.43871965,24.53688000
-38.39871965,23.64574000
-38.35871965,21.86041000
-38.31871965,21.86041000
-38.27871965,20.96927000
-38.23871965,20.96927000
-38.19871965,19.18699000
-38.15871965,19.18699000
-38.11871965,18.29585000
-38.07871965,17.40165000
-38.03871965,17.40165000
-37.99871965,16.51051000
-37.95871965,15.61937000
-37.91871965,14.72823000
-37.87871965,14.72823000
-37.83871965,13.83709000
-37.79871965,12.94595000
-37.75871965,12.05481000
-37.71871965,11.16062000
-37.67871965,11.16062000
-37.63871965,10.26948000
-37.59871965,9.37833800
-37.55871965,8.48719700
-37.51871965,7.59605700
-37.47871965,7.59605700
-37.43871966,6.70491600
-37.39871966,4.91958400
-37.35871966,5.81072400
-37.31871966,4.02844300
-37.27871966,4.02844300
-37.23871966,2.24616200
-37.19871966,2.24616200
-37.15871966,1.35502200
-37.11871966,0.46388130
-37.07871966,0.46388130
-37.03871966,-0.42725910
-36.99871966,-2.20954000
-36.95871966,-2.20954000
-36.91871966,-3.10068000
-36.87871966,-3.10068000
-36.83871966,-3.99182100
-36.79871966,-5.77715400
-36.75871966,-6.66829400
-36.71871966,-6.66829400
-36.67871966,-7.55943400
-36.63871966,-7.55943400
-36.59871966,-9.34171500
-36.55871966,-9.34171500
-36.51871966,-10.23286000
-36.47871966,-11.12705000
-36.43871966,-12.01819000
-36.39871966,-12.90933000
-36.35871966,-13.80047000
-36.31871966,-13.80047000
-36.27871966,-14.69161000
-36.23871966,-14.69161000
-36.19871966,-15.58275000
-36.15871966,-16.47389000
-36.11871966,-17.36808000
-36.07871966,-18.25922000
-36.03871966,-18.25922000
-35.99871966,-18.25922000
-35.95871966,-20.04151000
-35.91871966,-20.93265000
-35.87871966,-20.93265000
-35.83871966,-21.82379000
-35.79871967,-23.60912000
-35.75871967,-23.60912000
-35.71871967,-24.50026000
-35.67871967,-24.50026000
-35.63871967,-25.39140000
-35.59871967,-25.39140000
-35.55871967,-27.17368000
-35.51871967,-27.17368000
-35.47871967,-28.06787000
-35.43871967,-28.06787000
-35.39871967,-28.95901000
-35.35871967,-29.85015000
-35.31871967,-30.74129000
-35.27871967,-31.63244000
-35.23871967,-31.63244000
-35.19871967,-32.52357000
-35.15871967,-33.41471000
-35.11871967,-33.41471000
-35.07871967,-35.20005000
-35.03871967,-35.20005000
-34.99871967,-35.20005000
-34.95871967,-36.09119000
-34.91871967,-36.09119000
-34.87871967,-37.87347000
-34.83871967,-38.76461000
-34.79871967,-38.76461000
-34.75871967,-38.76461000
-34.71871967,-39.65880000
-34.67871967,-40.54994000
-34.63871967,-40.54994000
-34.59871967,-42.33222000
-34.55871967,-41.44109000
-34.51871967,-42.33222000
-34.47871967,-45.00565000
-34.43871967,-43.22336000
-34.39871967,-44.11451000
-34.35871967,-45.00565000
-34.31871967,-45.00565000
-34.27871967,-45.89984000
-34.23871967,-45.89984000
-34.19871967,-46.79098000
-34.15871968,-47.68212000
-34.11871968,-48.57326000
-34.07871968,-48.57326000
-34.03871968,-49.46440000
-33.99871968,-49.46440000
-33.95871968,-49.46440000
-33.91871968,-49.46440000
-33.87871968,-50.35554000
-33.83871968,-51.24973000
-33.79871968,-52.14087000
-33.75871968,-52.14087000
-33.71871968,-53.03201000
-33.67871968,-53.03201000
-33.63871968,-53.92315000
-33.59871968,-53.92315000
-33.55871968,-53.92315000
-33.51871968,-54.81429000
-33.47871968,-54.81429000
-33.43871968,-56.59963000
-33.39871968,-56.59963000
-33.35871968,-56.59963000
-33.31871968,-56.59963000
-33.27871968,-57.49076000
-33.23871968,-57.49076000
-33.19871968,-57.49076000
-33.15871968,-58.38191000
-33.11871968,-59.27305000
-33.07871968,-59.27305000
-33.03871968,-60.16419000
-32.99871968,-60.16419000
-32.95871968,-60.16419000
-32.91871968,-60.16419000
-32.87871968,-61.05533000
-32.83871968,-61.05533000
-32.79871968,-61.05533000
-32.75871968,-62.84066000
-32.71871968,-61.94647000
-32.67871968,-62.84066000
-32.63871968,-62.84066000
-32.59871968,-63.73180000
-32.55871968,-63.73180000
-32.51871969,-63.73180000
-32.47871969,-63.73180000
-32.43871969,-63.73180000
-32.39871969,-64.62294000
-32.35871969,-64.62294000
-32.31871969,-64.62294000
-32.27871969,-65.51408000
-32.23871969,-66.40523000
-32.19871969,-65.51408000
-32.15871969,-66.40523000
-32.11871969,-66.40523000
-32.07871969,-66.40523000
-32.03871969,-67.29636000
-31.99871969,-66.40523000
-31.95871969,-67.29636000
-31.91871969,-67.29636000
-31.87871969,-67.29636000
-31.83871969,-67.29636000
-31.79871969,-67.29636000
-31.75871969,-67.29636000
-31.71871969,-67.29636000
-31.67871969,-67.29636000
-31.63871969,-68.19056000
-31.59871969,-68.19056000
-31.55871969,-68.19056000
-31.51871969,-68.19056000
-31.47871969,-68.19056000
-31.43871969,-68.19056000
-31.39871969,-68.19056000
-31.35871969,-68.19056000
-31.31871969,-68.19056000
-31.27871969,-68.19056000
-31.23871969,-68.19056000
-31.19871969,-68.19056000
-31.15871969,-69.08170000
-31.11871969,-68.19056000
-31.07871969,-68.19056000
-31.03871969,-69.08170000
-30.99871969,-68.19056000
-30.95871969,-69.08170000
-30.91871969,-68.19056000
-30.87871969,-69.08170000
-30.83871970,-68.19056000
-30.79871970,-68.19056000
-30.75871970,-69.08170000
-30.71871970,-68.19056000
-30.67871970,-68.19056000
-30.63871970,-68.19056000
-30.59871970,-68.19056000
-30.55871970,-68.19056000
-30.51871970,-68.19056000
-30.47871970,-68.19056000
-30.43871970,-68.19056000
-30.39871970,-68.19056000
-30.35871970,-68.19056000
-30.31871970,-66.40523000
-30.27871970,-67.29636000
-30.23871970,-68.19056000
-30.19871970,-67.29636000
-30.15871970,-66.40523000
-30.11871970,-66.40523000
-30.07871970,-67.29636000
-30.03871970,-66.40523000
-29.99871970,-66.40523000
-29.95871970,-66.40523000
-29.91871970,-66.40523000
-29.87871970,-65.51408000
-29.83871970,-65.51408000
-29.79871970,-64.62294000
-29.75871970,-64.62294000
-29.71871970,-64.62294000
-29.67871970,-64.62294000
-29.63871970,-64.62294000
-29.59871970,-63.73180000
-29.55871970,-63.73180000
-29.51871970,-63.73180000
-29.47871970,-63.73180000
-29.43871970,-63.73180000
-29.39871970,-63.73180000
-29.35871970,-62.84066000
-29.31871970,-62.84066000
-29.27871970,-62.84066000
-29.23871970,-61.05533000
-29.19871971,-61.05533000
-29.15871971,-61.05533000
-29.11871971,-60.16419000
-29.07871971,-60.16419000
-29.03871971,-60.16419000
-28.99871971,-59.27305000
-28.95871971,-59.27305000
-28.91871971,-59.27305000
-28.87871971,-58.38191000
-28.83871971,-57.49076000
-28.79871971,-57.49076000
-28.75871971,-56.59963000
-28.71871971,-56.59963000
-28.67871971,-56.59963000
-28.63871971,-56.59963000
-28.59871971,-56.59963000
-28.55871971,-54.81429000
-28.51871971,-54.81429000
-28.47871971,-53.92315000
-28.43871971,-53.92315000
-28.39871971,-53.03201000
-28.35871971,-53.03201000
-28.31871971,-53.03201000
-28.27871971,-52.14087000
-28.23871971,-52.14087000
-28.19871971,-51.24973000
-28.15871971,-51.24973000
-28.11871971,-50.35554000
-28.07871971,-49.46440000
-28.03871971,-49.46440000
-27.99871971,-49.46440000
-27.95871971,-48.57326000
-27.91871971,-47.68212000
-27.87871971,-46.79098000
-27.83871971,-46.79098000
-27.79871971,-45.00565000
-27.75871971,-47.68212000
-27.71871971,-45.89984000
-27.67871971,-43.22336000
-27.63871971,-43.22336000
-27.59871971,-43.22336000
-27.55871972,-43.22336000
-27.51871972,-42.33222000
-27.47871972,-42.33222000
-27.43871972,-41.44109000
-27.39871972,-41.44109000
-27.35871972,-40.54994000
-27.31871972,-39.65880000
-27.27871972,-38.76461000
-27.23871972,-38.76461000
-27.19871972,-38.76461000
-27.15871972,-36.98233000
-27.11871972,-36.09119000
-27.07871972,-36.09119000
-27.03871972,-35.20005000
-26.99871972,-35.20005000
-26.95871972,-34.30891000
-26.91871972,-33.41471000
-26.87871972,-32.52357000
-26.83871972,-31.63244000
-26.79871972,-31.63244000
-26.75871972,-31.63244000
-26.71871972,-30.74129000
-26.67871972,-28.95901000
-26.63871972,-28.95901000
-26.59871972,-28.06787000
-26.55871972,-28.06787000
-26.51871972,-27.17368000
-26.47871972,-27.17368000
-26.43871972,-25.39140000
-26.39871972,-25.39140000
-26.35871972,-25.39140000
-26.31871972,-23.60912000
-26.27871972,-23.60912000
-26.23871972,-22.71798000
-26.19871972,-21.82379000
-26.15871972,-20.93265000
-26.11871972,-20.93265000
-26.07871972,-20.04151000
-26.03871972,-19.15036000
-25.99871972,-18.25922000
-25.95871972,-18.25922000
-25.91871973,-17.36808000
-25.87871973,-16.47389000
-25.83871973,-16.47389000
-25.79871973,-14.69161000
-25.75871973,-14.69161000
-25.71871973,-13.80047000
-25.67871973,-12.90933000
-25.63871973,-12.01819000
-25.59871973,-11.12705000
-25.55871973,-11.12705000
-25.51871973,-10.23286000
-25.47871973,-9.34171500
-25.43871973,-9.34171500
-25.39871973,-7.55943400
-25.35871973,-6.66829400
-25.31871973,-6.66829400
-25.27871973,-5.77715400
-25.23871973,-3.99182100
-25.19871973,-3.99182100
-25.15871973,-3.10068000
-25.11871973,-3.10068000
-25.07871973,-2.20954000
-25.03871973,-1.31840000
-24.99871973,-0.42725910
-24.95871973,-0.42725910
-24.91871973,0.46388130
-24.87871973,1.35502200
-24.83871973,2.24616200
-24.79871973,3.13730300
-24.75871973,4.02844300
-24.71871973,4.02844300
-24.67871973,4.02844300
-24.63871973,4.91958400
-24.59871973,6.70491600
-24.55871973,7.59605700
-24.51871973,7.59605700
-24.47871973,8.48719700
-24.43871973,9.37833800
-24.39871973,10.26948000
-24.35871973,11.16062000
-24.31871973,11.16062000
-24.27871974,12.94595000
-24.23871974,12.94595000
-24.19871974,14.72823000
-24.15871974,14.72823000
-24.11871974,14.72823000
-24.07871974,16.51051000
-24.03871974,17.40165000
-23.99871974,17.40165000
-23.95871974,18.29585000
-23.91871974,18.29585000
-23.87871974,19.18699000
-23.83871974,20.07813000
-23.79871974,20.96927000
-23.75871974,21.86041000
-23.71871974,21.86041000
-23.67871974,22.75155000
-23.63871974,23.64574000
-23.59871974,24.53688000
-23.55871974,25.42802000
-23.51871974,25.42802000
-23.47871974,26.31916000
-23.43871974,27.21030000
-23.39871974,28.10144000
-23.35871974,28.99564000
-23.31871974,28.99564000
-23.27871974,29.88678000
-23.23871974,30.77792000
-23.19871974,31.66906000
-23.15871974,32.56020000
-23.11871974,32.56020000
-23.07871974,32.56020000
-23.03871974,33.45134000
-22.99871974,34.34248000
-22.95871974,36.12781000
-22.91871974,36.12781000
-22.87871974,36.12781000
-22.83871974,37.01895000
-22.79871974,37.91009000
-22.75871974,38.80123000
-22.71871974,39.69238000
-22.67871974,39.69238000
-22.63871975,40.58657000
-22.59871975,39.69238000
-22.55871975,40.58657000
-22.51871975,43.25999000
-22.47871975,43.25999000
-22.43871975,43.25999000
-22.39871975,43.25999000
-22.35871975,44.15113000
-22.31871975,45.04227000
-22.27871975,45.93341000
-22.23871975,45.93341000
-22.19871975,46.82760000
-22.15871975,46.82760000
-22.11871975,47.71874000
-22.07871975,48.60988000
-22.03871975,49.50102000
-21.99871975,49.50102000
-21.95871975,50.39216000
-21.91871975,50.39216000
-21.87871975,51.28331000
-21.83871975,52.17749000
-21.79871975,52.17749000
-21.75871975,53.06863000
-21.71871975,53.95978000
-21.67871975,53.95978000
-21.63871975,54.85092000
-21.59871975,54.85092000
-21.55871975,54.85092000
-21.51871975,55.74205000
-21.47871975,56.63320000
-21.43871975,57.52739000
-21.39871975,57.52739000
-21.35871975,57.52739000
-21.31871975,58.41853000
-21.27871975,58.41853000
-21.23871975,59.30967000
-21.19871975,60.20081000
-21.15871975,60.20081000
-21.11871975,60.20081000
-21.07871975,61.09195000
-21.03871975,61.09195000
-20.99871976,61.98309000
-20.95871976,61.98309000
-20.91871976,62.87423000
-20.87871976,63.76843000
-20.83871976,63.76843000
-20.79871976,64.65956000
-20.75871976,64.65956000
-20.71871976,64.65956000
-20.67871976,64.65956000
-20.63871976,65.55070000
-20.59871976,65.55070000
-20.55871976,67.33298000
-20.51871976,66.44184000
-20.47871976,66.44184000
-20.43871976,67.33298000
-20.39871976,67.33298000
-20.35871976,67.33298000
-20.31871976,68.22413000
-20.27871976,68.22413000
-20.23871976,68.22413000
-20.19871976,69.11832000
-20.15871976,69.11832000
-20.11871976,69.11832000
-20.07871976,69.11832000
-20.03871976,70.90060000
-19.99871976,70.90060000
-19.95871976,70.90060000
-19.91871976,71.79174000
-19.87871976,70.90060000
-19.83871976,71.79174000
-19.79871976,72.68288000
-19.75871976,70.90060000
-19.71871976,71.79174000
-19.67871976,71.79174000
-19.63871976,72.68288000
-19.59871976,73.57403000
-19.55871976,72.68288000
-19.51871976,72.68288000
-19.47871976,73.57403000
-19.43871976,73.57403000
-19.39871976,74.46516000
-19.35871976,74.46516000
-19.31871977,74.46516000
-19.27871977,74.46516000
-19.23871977,74.46516000
-19.19871977,74.46516000
-19.15871977,74.46516000
-19.11871977,75.35935000
-19.07871977,74.46516000
-19.03871977,74.46516000
-18.99871977,75.35935000
-18.95871977,75.35935000
-18.91871977,74.46516000
-18.87871977,75.35935000
-18.83871977,75.35935000
-18.79871977,75.35935000
-18.75871977,75.35935000
-18.71871977,75.35935000
-18.67871977,75.35935000
-18.63871977,75.35935000
-18.59871977,75.35935000
-18.55871977,75.35935000
-18.51871977,75.35935000
-18.47871977,75.35935000
-18.43871977,75.35935000
-18.39871977,75.35935000
-18.35871977,75.35935000
-18.31871977,75.35935000
-18.27871977,75.35935000
-18.23871977,75.35935000
-18.19871977,75.35935000
-18.15871977,75.35935000
-18.11871977,75.35935000
-18.07871977,74.46516000
-18.03871977,75.35935000
-17.99871977,75.35935000
-17.95871977,74.46516000
-17.91871977,74.46516000
-17.87871977,74.46516000
-17.83871977,75.35935000
-17.79871977,74.46516000
-17.75871977,74.46516000
-17.71871977,74.46516000
-17.67871978,74.46516000
-17.63871978,73.57403000
-17.59871978,73.57403000
-17.55871978,72.68288000
-17.51871978,72.68288000
-17.47871978,72.68288000
-17.43871978,72.68288000
-17.39871978,72.68288000
-17.35871978,71.79174000
-17.31871978,71.79174000
-17.27871978,71.79174000
-17.23871978,71.79174000
-17.19871978,71.79174000
-17.15871978,70.90060000
-17.11871978,71.79174000
-17.07871978,70.90060000
-17.03871978,70.00946000
-16.99871978,70.00946000
-16.95871978,69.11832000
-16.91871978,69.11832000
-16.87871978,69.11832000
-16.83871978,69.11832000
-16.79871978,68.22413000
-16.75871978,68.22413000
-16.71871978,68.22413000
-16.67871978,68.22413000
-16.63871978,67.33298000
-16.59871978,67.33298000
-16.55871978,67.33298000
-16.51871978,66.44184000
-16.47871978,65.55070000
-16.43871978,65.55070000
-16.39871978,65.55070000
-16.35871978,64.65956000
-16.31871978,64.65956000
-16.27871978,64.65956000
-16.23871978,64.65956000
-16.19871978,63.76843000
-16.15871978,62.87423000
-16.11871978,61.98309000
-16.07871978,61.98309000
-16.03871979,61.09195000
-15.99871979,61.09195000
-15.95871979,61.09195000
-15.91871979,61.09195000
-15.87871979,59.30967000
-15.83871979,59.30967000
-15.79871979,58.41853000
-15.75871979,58.41853000
-15.71871979,58.41853000
-15.67871979,57.52739000
-15.63871979,57.52739000
-15.59871979,57.52739000
-15.55871979,55.74205000
-15.51871979,54.85092000
-15.47871979,55.74205000
-15.43871979,54.85092000
-15.39871979,53.95978000
-15.35871979,53.95978000
-15.31871979,53.95978000
-15.27871979,53.06863000
-15.23871979,52.17749000
-15.19871979,51.28331000
-15.15871979,50.39216000
-15.11871979,50.39216000
-15.07871979,50.39216000
-15.03871979,49.50102000
-14.99871979,49.50102000
-14.95871979,47.71874000
-14.91871979,47.71874000
-14.87871979,46.82760000
-14.83871979,46.82760000
-14.79871979,45.93341000
-14.75871979,45.93341000
-14.71871979,45.04227000
-14.67871979,44.15113000
-14.63871979,43.25999000
-14.59871979,42.36885000
-14.55871979,43.25999000
-14.51871979,42.36885000
-14.47871979,40.58657000
-14.43871979,40.58657000
-14.39871980,39.69238000
-14.35871980,38.80123000
-14.31871980,38.80123000
-14.27871980,37.91009000
-14.23871980,37.01895000
-14.19871980,37.01895000
-14.15871980,36.12781000
-14.11871980,35.23667000
-14.07871980,35.23667000
-14.03871980,35.23667000
-13.99871980,33.45134000
-13.95871980,32.56020000
-13.91871980,31.66906000
-13.87871980,31.66906000
-13.83871980,31.66906000
-13.79871980,29.88678000
-13.75871980,28.99564000
-13.71871980,28.99564000
-13.67871980,28.10144000
-13.63871980,28.10144000
-13.59871980,27.21030000
-13.55871980,26.31916000
-13.51871980,25.42802000
-13.47871980,25.42802000
-13.43871980,24.53688000
-13.39871980,23.64574000
-13.35871980,21.86041000
-13.31871980,21.86041000
-13.27871980,21.86041000
-13.23871980,20.07813000
-13.19871980,19.18699000
-13.15871980,19.18699000
-13.11871980,17.40165000
-13.07871980,19.18699000
-13.03871980,15.61937000
-12.99871980,14.72823000
-12.95871980,15.61937000
-12.91871980,14.72823000
-12.87871980,14.72823000
-12.83871980,13.83709000
-12.79871980,12.05481000
-12.75871981,12.05481000
-12.71871981,11.16062000
-12.67871981,10.26948000
-12.63871981,10.26948000
-12.59871981,9.37833800
-12.55871981,8.48719700
-12.51871981,7.59605700
-12.47871981,6.70491600
-12.43871981,6.70491600
-12.39871981,5.81072400
-12.35871981,4.91958400
-12.31871981,4.02844300
-12.27871981,3.13730300
-12.23871981,3.13730300
-12.19871981,1.35502200
-12.15871981,0.46388130
-12.11871981,0.46388130
-12.07871981,-0.42725910
-12.03871981,-0.42725910
-11.99871981,-2.20954000
-11.95871981,-3.10068000
-11.91871981,-3.10068000
-11.87871981,-3.99182100
-11.83871981,-3.99182100
-11.79871981,-6.66829400
-11.75871981,-5.77715400
-11.71871981,-6.66829400
-11.67871981,-7.55943400
-11.63871981,-7.55943400
-11.59871981,-9.34171500
-11.55871981,-10.23286000
-11.51871981,-10.23286000
-11.47871981,-11.12705000
-11.43871981,-12.01819000
-11.39871981,-12.90933000
-11.35871981,-12.90933000
-11.31871981,-13.80047000
-11.27871981,-14.69161000
-11.23871981,-15.58275000
-11.19871981,-16.47389000
-11.15871981,-17.36808000
-11.11871982,-17.36808000
-11.07871982,-18.25922000
-11.03871982,-18.25922000
-10.99871982,-20.04151000
-10.95871982,-20.93265000
-10.91871982,-20.93265000
-10.87871982,-20.93265000
-10.83871982,-21.82379000
-10.79871982,-23.60912000
-10.75871982,-24.50026000
-10.71871982,-24.50026000
-10.67871982,-24.50026000
-10.63871982,-25.39140000
-10.59871982,-25.39140000
-10.55871982,-27.17368000
-10.51871982,-28.06787000
-10.47871982,-28.06787000
-10.43871982,-28.06787000
-10.39871982,-28.95901000
-10.35871982,-29.85015000
-10.31871982,-30.74129000
-10.27871982,-30.74129000
-10.23871982,-31.63244000
-10.19871982,-32.52357000
-10.15871982,-33.41471000
-10.11871982,-34.30891000
-10.07871982,-35.20005000
-10.03871982,-35.20005000
-9.99871982,-36.09119000
-9.95871982,-36.09119000
-9.91871982,-36.98233000
-9.87871982,-37.87347000
-9.83871982,-38.76461000
-9.79871982,-38.76461000
-9.75871982,-38.76461000
-9.71871982,-39.65880000
-9.67871982,-40.54994000
-9.63871982,-41.44109000
-9.59871982,-42.33222000
-9.55871982,-42.33222000
-9.51871982,-42.33222000
-9.47871983,-43.22336000
-9.43871983,-43.22336000
-9.39871983,-45.00565000
-9.35871983,-45.00565000
-9.31871983,-45.89984000
-9.27871983,-45.89984000
-9.23871983,-45.89984000
-9.19871983,-46.79098000
-9.15871983,-46.79098000
-9.11871983,-48.57326000
-9.07871983,-48.57326000
-9.03871983,-48.57326000
-8.99871983,-49.46440000
-8.95871983,-49.46440000
-8.91871983,-50.35554000
-8.87871983,-50.35554000
-8.83871983,-50.35554000
-8.79871983,-52.14087000
-8.75871983,-53.03201000
-8.71871983,-53.03201000
-8.67871983,-53.92315000
-8.63871983,-53.92315000
-8.59871983,-53.92315000
-8.55871983,-54.81429000
-8.51871983,-55.70544000
-8.47871983,-55.70544000
-8.43871983,-56.59963000
-8.39871983,-56.59963000
-8.35871983,-56.59963000
-8.31871983,-57.49076000
-8.27871983,-57.49076000
-8.23871983,-57.49076000
-8.19871983,-58.38191000
-8.15871983,-59.27305000
-8.11871983,-59.27305000
-8.07871983,-59.27305000
-8.03871983,-59.27305000
-7.99871983,-60.16419000
-7.95871983,-60.16419000
-7.91871983,-60.16419000
-7.87871983,-61.05533000
-7.83871984,-61.05533000
-7.79871984,-61.05533000
-7.75871984,-61.94647000
-7.71871984,-62.84066000
-7.67871984,-61.05533000
-7.63871984,-62.84066000
-7.59871984,-63.73180000
-7.55871984,-63.73180000
-7.51871984,-63.73180000
-7.47871984,-63.73180000
-7.43871984,-63.73180000
-7.39871984,-64.62294000
-7.35871984,-64.62294000
-7.31871984,-64.62294000
-7.27871984,-65.51408000
-7.23871984,-66.40523000
-7.19871984,-66.40523000
-7.15871984,-66.40523000
-7.11871984,-66.40523000
-7.07871984,-66.40523000
-7.03871984,-67.29636000
-6.99871984,-66.40523000
-6.95871984,-67.29636000
-6.91871984,-67.29636000
-6.87871984,-67.29636000
-6.83871984,-67.29636000
-6.79871984,-67.29636000
-6.75871984,-67.29636000
-6.71871984,-67.29636000
-6.67871984,-68.19056000
-6.63871984,-67.29636000
-6.59871984,-68.19056000
-6.55871984,-68.19056000
-6.51871984,-68.19056000
-6.47871984,-68.19056000
-6.43871984,-68.19056000
-6.39871984,-68.19056000
-6.35871984,-68.19056000
-6.31871984,-68.19056000
-6.27871984,-68.19056000
-6.23871984,-68.19056000
-6.19871984,-69.08170000
-6.15871985,-68.19056000
-6.11871985,-68.19056000
-6.07871985,-68.19056000
-6.03871985,-69.08170000
-5.99871985,-69.08170000
-5.95871985,-68.19056000
-5.91871985,-69.08170000
-5.87871985,-69.97284000
-5.83871985,-68.19056000
-5.79871985,-69.08170000
-5.75871985,-68.19056000
-5.71871985,-68.19056000
-5.67871985,-68.19056000
-5.63871985,-68.19056000
-5.59871985,-68.19056000
-5.55871985,-68.19056000
-5.51871985,-68.19056000
-5.47871985,-67.29636000
-5.43871985,-68.19056000
-5.39871985,-68.19056000
-5.35871985,-67.29636000
-5.31871985,-67.29636000
-5.27871985,-67.29636000
-5.23871985,-67.29636000
-5.19871985,-67.29636000
-5.15871985,-67.29636000
-5.11871985,-67.29636000
-5.07871985,-67.29636000
-5.03871985,-67.29636000
-4.99871985,-66.40523000
-4.95871985,-66.40523000
-4.91871985,-67.29636000
-4.87871985,-66.40523000
-4.83871985,-64.62294000
-4.79871985,-66.40523000
-4.75871985,-66.40523000
-4.71871985,-64.62294000
-4.67871985,-64.62294000
-4.63871985,-63.73180000
-4.59871985,-63.73180000
-4.55871985,-63.73180000
-4.51871986,-64.62294000
-4.47871986,-63.73180000
-4.43871986,-63.73180000
-4.39871986,-62.84066000
-4.35871986,-61.94647000
-4.31871986,-62.84066000
-4.27871986,-61.05533000
-4.23871986,-61.05533000
-4.19871986,-61.05533000
-4.15871986,-61.05533000
-4.11871986,-61.05533000
-4.07871986,-60.16419000
-4.03871986,-60.16419000
-3.99871986,-59.27305000
-3.95871986,-59.27305000
-3.91871986,-59.27305000
-3.87871986,-59.27305000
-3.83871986,-58.38191000
-3.79871986,-57.49076000
-3.75871986,-57.49076000
-3.71871986,-56.59963000
-3.67871986,-56.59963000
-3.63871986,-55.70544000
-3.59871986,-56.59963000
-3.55871986,-55.70544000
-3.51871986,-54.81429000
-3.47871986,-54.81429000
-3.43871986,-53.92315000
-3.39871986,-53.03201000
-3.35871986,-53.03201000
-3.31871986,-53.03201000
-3.27871986,-52.14087000
-3.23871986,-51.24973000
-3.19871986,-51.24973000
-3.15871986,-50.35554000
-3.11871986,-50.35554000
-3.07871986,-49.46440000
-3.03871986,-49.46440000
-2.99871986,-49.46440000
-2.95871986,-47.68212000
-2.91871986,-46.79098000
-2.87871987,-46.79098000
-2.83871987,-46.79098000
-2.79871987,-45.89984000
-2.75871987,-45.89984000
-2.71871987,-45.00565000
-2.67871987,-45.00565000
-2.63871987,-44.11451000
-2.59871987,-44.11451000
-2.55871987,-43.22336000
-2.51871987,-42.33222000
-2.47871987,-42.33222000
-2.43871987,-41.44109000
-2.39871987,-41.44109000
-2.35871987,-40.54994000
-2.31871987,-39.65880000
-2.27871987,-38.76461000
-2.23871987,-38.76461000
-2.19871987,-37.87347000
-2.15871987,-37.87347000
-2.11871987,-36.98233000
-2.07871987,-36.09119000
-2.03871987,-35.20005000
-1.99871987,-35.20005000
-1.95871987,-35.20005000
-1.91871987,-33.41471000
-1.87871987,-32.52357000
-1.83871987,-31.63244000
-1.79871987,-31.63244000
-1.75871987,-30.74129000
-1.71871987,-30.74129000
-1.67871987,-29.85015000
-1.63871987,-28.95901000
-1.59871987,-28.06787000
-1.55871987,-28.06787000
-1.51871987,-28.06787000
-1.47871987,-27.17368000
-1.43871987,-25.39140000
-1.39871987,-25.39140000
-1.35871987,-24.50026000
-1.31871987,-24.50026000
-1.27871987,-23.60912000
-1.23871988,-23.60912000
-1.19871988,-21.82379000
-1.15871988,-20.93265000
-1.11871988,-20.93265000
-1.07871988,-20.04151000
-1.03871988,-19.15036000
-0.99871988,-18.25922000
-0.95871988,-17.36808000
-0.91871988,-17.36808000
-0.87871988,-16.47389000
-0.83871988,-16.47389000
-0.79871988,-14.69161000
-0.75871988,-13.80047000
-0.71871988,-13.80047000
-0.67871988,-12.01819000
-0.63871988,-12.90933000
-0.59871988,-12.01819000
-0.55871988,-10.23286000
-0.51871988,-10.23286000
-0.47871988,-9.34171500
-0.43871988,-9.34171500
-0.39871988,-7.55943400
-0.35871988,-7.55943400
-0.31871988,-6.66829400
-0.27871988,-5.77715400
-0.23871988,-4.88296100
-0.19871988,-3.99182100
-0.15871988,-3.10068000
-0.11871988,-3.10068000
-0.07871988,-2.20954000
-0.03871988,-1.31840000
0.00128012,-0.42725910
0.04128012,-0.42725910
0.08128012,0.46388130
0.12128012,0.46388130
0.16128012,2.24616200
0.20128012,2.24616200
0.24128012,3.13730300
0.28128012,4.02844300
0.32128012,4.91958400
0.36128012,5.81072400
0.40128011,6.70491600
0.44128011,7.59605700
0.48128011,7.59605700
0.52128011,8.48719700
0.56128011,9.37833800
0.60128011,10.26948000
0.64128011,11.16062000
0.68128011,11.16062000
0.72128011,12.05481000
0.76128011,12.94595000
0.80128011,14.72823000
0.84128011,13.83709000
0.88128011,14.72823000
0.92128011,15.61937000
0.96128011,16.51051000
1.00128011,17.40165000
1.04128011,18.29585000
1.08128011,18.29585000
1.12128011,19.18699000
1.16128011,20.07813000
1.20128011,20.96927000
1.24128011,21.86041000
1.28128011,21.86041000
1.32128011,22.75155000
1.36128011,23.64574000
1.40128011,24.53688000
1.44128011,25.42802000
1.48128011,25.42802000
1.52128011,26.31916000
1.56128011,27.21030000
1.60128011,28.10144000
1.64128011,28.99564000
1.68128011,28.99564000
1.72128011,29.88678000
1.76128011,29.88678000
1.80128011,30.77792000
1.84128011,32.56020000
1.88128011,32.56020000
1.92128011,31.66906000
1.96128011,34.34248000
2.00128011,35.23667000
2.04128010,36.12781000
2.08128010,36.12781000
2.12128010,36.12781000
2.16128010,37.01895000
2.20128010,37.01895000
2.24128010,38.80123000
2.28128010,38.80123000
2.32128010,39.69238000
2.36128010,39.69238000
2.40128010,40.58657000
2.44128010,41.47770000
2.48128010,42.36885000
2.52128010,43.25999000
2.56128010,43.25999000
2.60128010,44.15113000
2.64128010,44.15113000
2.68128010,45.93341000
2.72128010,45.93341000
2.76128010,45.93341000
2.80128010,46.82760000
2.84128010,46.82760000
2.88128010,47.71874000
2.92128010,48.60988000
2.96128010,47.71874000
3.00128010,49.50102000
3.04128010,50.39216000
3.08128010,50.39216000
3.12128010,52.17749000
3.16128010,50.39216000
3.20128010,52.17749000
3.24128010,53.06863000
3.28128010,53.95978000
3.32128010,53.95978000
3.36128010,53.95978000
3.40128010,54.85092000
3.44128010,54.85092000
3.48128010,56.63320000
3.52128010,56.63320000
3.56128010,56.63320000
3.60128010,57.52739000
3.64128010,57.52739000
3.68128009,58.41853000
3.72128009,59.30967000
3.76128009,59.30967000
3.80128009,60.20081000
3.84128009,60.20081000
3.88128009,61.09195000
3.92128009,61.09195000
3.96128009,61.09195000
4.00128009,61.09195000
4.04128009,61.98309000
4.08128009,61.98309000
4.12128009,63.76843000
4.16128009,63.76843000
4.20128009,63.76843000
4.24128009,63.76843000
4.28128009,64.65956000
4.32128009,64.65956000
4.36128009,65.55070000
4.40128009,65.55070000
4.44128009,66.44184000
4.48128009,66.44184000
4.52128009,66.44184000
4.56128009,67.33298000
4.60128009,68.22413000
4.64128009,68.22413000
4.68128009,68.22413000
4.72128009,68.22413000
4.76128009,69.11832000
4.80128009,69.11832000
4.84128009,69.11832000
4.88128009,69.11832000
4.92128009,70.00946000
4.96128009,70.90060000
5.00128009,70.90060000
5.04128009,70.90060000
5.08128009,70.90060000
5.12128009,70.90060000
5.16128009,71.79174000
5.20128009,71.79174000
5.24128009,71.79174000
5.28128009,71.79174000
5.32128009,71.79174000
5.36128008,72.68288000
5.40128008,72.68288000
5.44128008,73.57403000
5.48128008,73.57403000
5.52128008,73.57403000
5.56128008,73.57403000
5.60128008,74.46516000
5.64128008,73.57403000
5.68128008,74.46516000
5.72128008,74.46516000
5.76128008,74.46516000
5.80128008,74.46516000
5.84128008,74.46516000
5.88128008,74.46516000
5.92128008,74.46516000
5.96128008,74.46516000
6.00128008,74.46516000
6.04128008,75.35935000
6.08128008,75.35935000
6.12128008,75.35935000
6.16128008,75.35935000
6.20128008,75.35935000
6.24128008,75.35935000
6.28128008,75.35935000
6.32128008,75.35935000
6.36128008,75.35935000
6.40128008,75.35935000
6.44128008,75.35935000
6.48128008,75.35935000
6.52128008,75.35935000
6.56128008,75.35935000
6.60128008,75.35935000
6.64128008,75.35935000
6.68128008,75.35935000
6.72128008,75.35935000
6.76128008,75.35935000
6.80128008,74.46516000
6.84128008,75.35935000
6.88128008,75.35935000
6.92128008,75.35935000
6.96128008,74.46516000
7.00128007,73.57403000
7.04128007,75.35935000
7.08128007,75.35935000
7.12128007,74.46516000
7.16128007,74.46516000
7.20128007,74.46516000
7.24128007,74.46516000
7.28128007,74.46516000
7.32128007,73.57403000
7.36128007,73.57403000
7.40128007,73.57403000
7.44128007,72.68288000
7.48128007,72.68288000
7.52128007,72.68288000
7.56128007,72.68288000
7.60128007,71.79174000
7.64128007,71.79174000
7.68128007,71.79174000
7.72128007,71.79174000
7.76128007,71.79174000
7.80128007,70.90060000
7.84128007,71.79174000
7.88128007,70.90060000
7.92128007,70.90060000
7.96128007,70.90060000
8.00128007,70.90060000
8.04128007,70.00946000
8.08128007,69.11832000
8.12128007,69.11832000
8.16128007,69.11832000
8.20128007,68.22413000
8.24128007,68.22413000
8.28128007,68.22413000
8.32128007,68.22413000
8.36128007,67.33298000
8.40128007,68.22413000
8.44128007,66.44184000
8.48128007,66.44184000
8.52128007,66.44184000
8.56128007,65.55070000
8.60128007,64.65956000
8.64128006,64.65956000
8.68128006,64.65956000
8.72128006,64.65956000
8.76128006,64.65956000
8.80128006,63.76843000
8.84128006,61.98309000
8.88128006,61.98309000
8.92128006,61.98309000
8.96128006,61.09195000
9.00128006,61.09195000
9.04128006,61.09195000
9.08128006,60.20081000
9.12128006,60.20081000
9.16128006,59.30967000
9.20128006,58.41853000
9.24128006,58.41853000
9.28128006,57.52739000
9.32128006,57.52739000
9.36128006,57.52739000
9.40128006,57.52739000
9.44128006,56.63320000
9.48128006,55.74205000
9.52128006,54.85092000
9.56128006,53.95978000
9.60128006,53.95978000
9.64128006,53.95978000
9.68128006,53.95978000
9.72128006,53.06863000
9.76128006,50.39216000
9.80128006,52.17749000
9.84128006,52.17749000
9.88128006,49.50102000
9.92128006,50.39216000
9.96128006,50.39216000
10.00128006,49.50102000
10.04128006,47.71874000
10.08128006,46.82760000
10.12128006,46.82760000
10.16128006,46.82760000
10.20128006,45.93341000
10.24128006,45.04227000
10.28128005,44.15113000
10.32128005,43.25999000
10.36128005,43.25999000
10.40128005,43.25999000
10.44128005,43.25999000
10.48128005,42.36885000
10.52128005,41.47770000
10.56128005,40.58657000
10.60128005,39.69238000
10.64128005,39.69238000
10.68128005,38.80123000
10.72128005,38.80123000
10.76128005,37.91009000
10.80128005,37.01895000
10.84128005,36.12781000
10.88128005,36.12781000
10.92128005,35.23667000
10.96128005,33.45134000
11.00128005,33.45134000
11.04128005,32.56020000
11.08128005,31.66906000
11.12128005,31.66906000
11.16128005,31.66906000
11.20128005,29.88678000
11.24128005,28.99564000
11.28128005,28.99564000
11.32128005,28.10144000
11.36128005,27.21030000
11.40128005,27.21030000
11.44128005,26.31916000
11.48128005,25.42802000
11.52128005,24.53688000
11.56128005,23.64574000
11.60128005,23.64574000
11.64128005,22.75155000
11.68128005,21.86041000
11.72128005,20.96927000
11.76128005,20.96927000
11.80128005,19.18699000
11.84128005,19.18699000
11.88128005,18.29585000
11.92128004,18.29585000
11.96128004,17.40165000
12.00128004,16.51051000
12.04128004,15.61937000
12.08128004,14.72823000
12.12128004,14.72823000
12.16128004,13.83709000
12.20128004,12.05481000
12.24128004,11.16062000
12.28128004,11.16062000
12.32128004,10.26948000
12.36128004,10.26948000
12.40128004,8.48719700
12.44128004,7.59605700
12.48128004,7.59605700
12.52128004,7.59605700
12.56128004,6.70491600
12.60128004,4.91958400
12.64128004,4.91958400
12.68128004,4.02844300
12.72128004,3.13730300
12.76128004,2.24616200
12.80128004,2.24616200
12.84128004,1.35502200
12.88128004,0.46388130
12.92128004,0.46388130
12.96128004,-0.42725910
13.00128004,-1.31840000
13.04128004,-2.20954000
13.08128004,-3.10068000
13.12128004,-3.99182100
13.16128004,-3.99182100
13.20128004,-5.77715400
13.24128004,-6.66829400
13.28128004,-6.66829400
13.32128004,-7.55943400
13.36128004,-9.34171500
13.40128004,-9.34171500
13.44128004,-10.23286000
13.48128004,-11.12705000
13.52128004,-11.12705000
13.56128003,-12.01819000
13.60128003,-12.90933000
13.64128003,-13.80047000
13.68128003,-13.80047000
13.72128003,-14.69161000
13.76128003,-15.58275000
13.80128003,-17.36808000
13.84128003,-17.36808000
13.88128003,-17.36808000
13.92128003,-18.25922000
13.96128003,-18.25922000
14.00128003,-19.15036000
14.04128003,-20.93265000
14.08128003,-20.93265000
14.12128003,-20.93265000
14.16128003,-21.82379000
14.20128003,-22.71798000
14.24128003,-24.50026000
14.28128003,-24.50026000
14.32128003,-24.50026000
14.36128003,-25.39140000
14.40128003,-26.28254000
14.44128003,-28.06787000
14.48128003,-28.06787000
14.52128003,-28.06787000
14.56128003,-28.95901000
14.60128003,-28.95901000
14.64128003,-30.74129000
14.68128003,-30.74129000
14.72128003,-31.63244000
14.76128003,-31.63244000
14.80128003,-32.52357000
14.84128003,-33.41471000
14.88128003,-34.30891000
14.92128003,-35.20005000
14.96128003,-35.20005000
15.00128003,-36.09119000
15.04128003,-36.09119000
15.08128003,-37.87347000
15.12128003,-37.87347000
15.16128003,-38.76461000
15.20128002,-38.76461000
15.24128002,-39.65880000
15.28128002,-39.65880000
15.32128002,-40.54994000
15.36128002,-41.44109000
15.40128002,-41.44109000
15.44128002,-42.33222000
15.48128002,-42.33222000
15.52128002,-43.22336000
15.56128002,-43.22336000
15.60128002,-44.11451000
15.64128002,-45.00565000
15.68128002,-45.89984000
15.72128002,-45.89984000
15.76128002,-46.79098000
15.80128002,-46.79098000
15.84128002,-47.68212000
15.88128002,-47.68212000
15.92128002,-48.57326000
15.96128002,-49.46440000
16.00128002,-49.46440000
16.04128002,-50.35554000
16.08128002,-50.35554000
16.12128002,-50.35554000
16.16128002,-52.14087000
16.20128002,-52.14087000
16.24128002,-53.03201000
16.28128002,-53.03201000
16.32128002,-53.03201000
16.36128002,-53.92315000
16.40128002,-53.92315000
16.44128002,-54.81429000
16.48128002,-55.70544000
16.52128002,-55.70544000
16.56128002,-56.59963000
16.60128002,-53.92315000
16.64128002,-56.59963000
16.68128002,-59.27305000
16.72128002,-56.59963000
16.76128002,-57.49076000
16.80128002,-57.49076000
16.84128002,-59.27305000
16.88128001,-59.27305000
16.92128001,-59.27305000
16.96128001,-60.16419000
17.00128001,-60.16419000
17.04128001,-60.16419000
17.08128001,-61.05533000
17.12128001,-61.05533000
17.16128001,-61.94647000
17.20128001,-61.05533000
17.24128001,-62.84066000
17.28128001,-61.94647000
17.32128001,-62.84066000
17.36128001,-63.73180000
17.40128001,-63.73180000
17.44128001,-63.73180000
17.48128001,-63.73180000
17.52128001,-63.73180000
17.56128001,-64.62294000
17.60128001,-64.62294000
17.64128001,-65.51408000
17.68128001,-64.62294000
17.72128001,-65.51408000
17.76128001,-65.51408000
17.80128001,-66.40523000
17.84128001,-65.51408000
17.88128001,-66.40523000
17.92128001,-66.40523000
17.96128001,-67.29636000
18.00128001,-67.29636000
18.04128001,-67.29636000
18.08128001,-67.29636000
18.12128001,-67.29636000
18.16128001,-67.29636000
18.20128001,-67.29636000
18.24128001,-67.29636000
18.28128001,-68.19056000
18.32128001,-68.19056000
18.36128001,-68.19056000
18.40128001,-68.19056000
18.44128001,-68.19056000
18.48128001,-68.19056000
18.52128000,-68.19056000
18.56128000,-68.19056000
18.60128000,-68.19056000
18.64128000,-68.19056000
18.68128000,-69.08170000
18.72128000,-69.08170000
18.76128000,-68.19056000
18.80128000,-68.19056000
18.84128000,-69.08170000
18.88128000,-69.08170000
18.92128000,-68.19056000
18.96128000,-69.08170000
19.00128000,-69.08170000
19.04128000,-69.08170000
19.08128000,-68.19056000
19.12128000,-68.19056000
19.16128000,-68.19056000
19.20128000,-69.08170000
19.24128000,-69.08170000
19.28128000,-68.19056000
19.32128000,-68.19056000
19.36128000,-68.19056000
19.40128000,-68.19056000
19.44128000,-68.19056000
19.48128000,-68.19056000
19.52128000,-68.19056000
19.56128000,-68.19056000
19.60128000,-68.19056000
19.64128000,-67.29636000
19.68128000,-67.29636000
19.72128000,-68.19056000
19.76128000,-67.29636000
19.80128000,-67.29636000
19.84128000,-67.29636000
19.88128000,-67.29636000
19.92128000,-67.29636000
19.96128000,-67.29636000
20.00128000,-66.40523000
20.04128000,-66.40523000
20.08128000,-66.40523000
20.12128000,-66.40523000
20.16127999,-65.51408000
20.20127999,-66.40523000
20.24127999,-64.62294000
20.28127999,-64.62294000
20.32127999,-64.62294000
20.36127999,-64.62294000
20.40127999,-64.62294000
20.44127999,-63.73180000
20.48127999,-63.73180000
20.52127999,-63.73180000
20.56127999,-62.84066000
20.60127999,-63.73180000
20.64127999,-62.84066000
20.68127999,-62.84066000
20.72127999,-61.94647000
20.76127999,-61.94647000
20.80127999,-61.05533000
20.84127999,-60.16419000
20.88127999,-61.05533000
20.92127999,-60.16419000
20.96127999,-60.16419000
21.00127999,-60.16419000
21.04127999,-59.27305000
21.08127999,-59.27305000
21.12127999,-58.38191000
21.16127999,-57.49076000
21.20127999,-57.49076000
21.24127999,-57.49076000
21.28127999,-56.59963000
21.32127999,-56.59963000
21.36127999,-56.59963000
21.40127999,-55.70544000
21.44127999,-54.81429000
21.48127999,-54.81429000
21.52127999,-54.81429000
21.56127999,-53.92315000
21.60127999,-53.03201000
21.64127999,-53.03201000
21.68127999,-53.03201000
21.72127999,-52.14087000
21.76127999,-52.14087000
21.80127998,-51.24973000
21.84127998,-50.35554000
21.88127998,-49.46440000
21.92127998,-49.46440000
21.96127998,-49.46440000
22.00127998,-48.57326000
22.04127998,-48.57326000
22.08127998,-47.68212000
22.12127998,-47.68212000
22.16127998,-46.79098000
22.20127998,-45.89984000
22.24127998,-45.89984000
22.28127998,-45.89984000
22.32127998,-45.00565000
22.36127998,-44.11451000
22.40127998,-44.11451000
22.44127998,-43.22336000
22.48127998,-42.33222000
22.52127998,-42.33222000
22.56127998,-42.33222000
22.60127998,-41.44109000
22.64127998,-39.65880000
22.68127998,-39.65880000
22.72127998,-38.76461000
22.76127998,-38.76461000
22.80127998,-37.87347000
22.84127998,-36.98233000
22.88127998,-36.09119000
22.92127998,-35.20005000
22.96127998,-35.20005000
23.00127998,-35.20005000
23.04127998,-34.30891000
23.08127998,-33.41471000
23.12127998,-32.52357000
23.16127998,-31.63244000
23.20127998,-31.63244000
23.24127998,-31.63244000
23.28127998,-30.74129000
23.32127998,-29.85015000
23.36127998,-28.95901000
23.40127998,-28.06787000
23.44127997,-28.06787000
23.48127997,-27.17368000
23.52127997,-27.17368000
23.56127997,-26.28254000
23.60127997,-25.39140000
23.64127997,-24.50026000
23.68127997,-24.50026000
23.72127997,-23.60912000
23.76127997,-21.82379000
23.80127997,-21.82379000
23.84127997,-20.93265000
23.88127997,-20.93265000
23.92127997,-20.04151000
23.96127997,-18.25922000
24.00127997,-18.25922000
24.04127997,-18.25922000
24.08127997,-17.36808000
24.12127997,-16.47389000
24.16127997,-15.58275000
24.20127997,-14.69161000
24.24127997,-13.80047000
24.28127997,-13.80047000
24.32127997,-12.90933000
24.36127997,-12.01819000
24.40127997,-11.12705000
24.44127997,-10.23286000
24.48127997,-10.23286000
24.52127997,-9.34171500
24.56127997,-9.34171500
24.60127997,-7.55943400
24.64127997,-7.55943400
24.68127997,-6.66829400
24.72127997,-6.66829400
24.76127997,-3.10068000
24.80127997,-4.88296100
24.84127997,-4.88296100
24.88127997,-2.20954000
24.92127997,-2.20954000
24.96127997,-2.20954000
25.00127997,-0.42725910
25.04127997,-0.42725910
25.08127996,0.46388130
25.12127996,1.35502200
25.16127996,3.13730300
25.20127996,3.13730300
25.24127996,3.13730300
25.28127996,4.02844300
25.32127996,4.02844300
25.36127996,5.81072400
25.40127996,6.70491600
25.44127996,7.59605700
25.48127996,7.59605700
25.52127996,8.48719700
25.56127996,9.37833800
25.60127996,10.26948000
25.64127996,11.16062000
25.68127996,11.16062000
25.72127996,12.05481000
25.76127996,12.94595000
25.80127996,13.83709000
25.84127996,14.72823000
25.88127996,14.72823000
25.92127996,15.61937000
25.96127996,16.51051000
26.00127996,17.40165000
26.04127996,18.29585000
26.08127996,18.29585000
26.12127996,19.18699000
26.16127996,20.07813000
26.20127996,20.96927000
26.24127996,21.86041000
26.28127996,21.86041000
26.32127996,22.75155000
26.36127996,23.64574000
26.40127996,24.53688000
26.44127996,25.42802000
26.48127996,25.42802000
26.52127996,26.31916000
26.56127996,27.21030000
26.60127996,28.10144000
26.64127996,28.99564000
26.68127996,28.99564000
26.72127995,28.99564000
26.76127995,29.88678000
26.80127995,31.66906000
26.84127995,31.66906000
26.88127995,32.56020000
26.92127995,32.56020000
26.96127995,33.45134000
27.00127995,34.34248000
27.04127995,35.23667000
27.08127995,36.12781000
27.12127995,36.12781000
27.16127995,36.12781000
27.20127995,37.91009000
27.24127995,38.80123000
27.28127995,38.80123000
27.32127995,39.69238000
27.36127995,39.69238000
27.40127995,40.58657000
27.44127995,40.58657000
27.48127995,42.36885000
27.52127995,43.25999000
27.56127995,43.25999000
27.60127995,44.15113000
27.64127995,44.15113000
27.68127995,44.15113000
27.72127995,45.93341000
27.76127995,45.93341000
27.80127995,46.82760000
27.84127995,46.82760000
27.88127995,47.71874000
27.92127995,48.60988000
27.96127995,49.50102000
28.00127995,49.50102000
28.04127995,50.39216000
28.08127995,51.28331000
28.12127995,51.28331000
28.16127995,52.17749000
28.20127995,52.17749000
28.24127995,53.06863000
28.28127995,53.95978000
28.32127995,53.95978000
28.36127994,53.95978000
28.40127994,54.85092000
28.44127994,54.85092000
28.48127994,54.85092000
28.52127994,56.63320000
28.56127994,57.52739000
28.60127994,57.52739000
28.64127994,57.52739000
28.68127994,58.41853000
28.72127994,58.41853000
28.76127994,59.30967000
28.80127994,60.20081000
28.84127994,60.20081000
28.88127994,61.09195000
28.92127994,61.09195000
28.96127994,61.98309000
29.00127994,61.09195000
29.04127994,61.09195000
29.08127994,63.76843000
29.12127994,63.76843000
29.16127994,63.76843000
29.20127994,63.76843000
29.24127994,64.65956000
29.28127994,64.65956000
29.32127994,64.65956000
29.36127994,65.55070000
29.40127994,65.55070000
29.44127994,65.55070000
29.48127994,67.33298000
29.52127994,66.44184000
29.56127994,67.33298000
29.60127994,67.33298000
29.64127994,67.33298000
29.68127994,68.22413000
29.72127994,68.22413000
29.76127994,69.11832000
29.80127994,69.11832000
29.84127994,68.22413000
29.88127994,69.11832000
29.92127994,69.11832000
29.96127994,70.00946000
30.00127994,70.90060000
30.04127993,70.90060000
30.08127993,70.90060000
30.12127993,70.90060000
30.16127993,71.79174000
30.20127993,71.79174000
30.24127993,71.79174000
30.28127993,71.79174000
30.32127993,72.68288000
30.36127993,72.68288000
30.40127993,72.68288000
30.44127993,73.57403000
30.48127993,72.68288000
30.52127993,73.57403000
30.56127993,72.68288000
30.60127993,74.46516000
30.64127993,74.46516000
30.68127993,74.46516000
30.72127993,73.57403000
30.76127993,74.46516000
30.80127993,74.46516000
30.84127993,74.46516000
30.88127993,74.46516000
30.92127993,74.46516000
30.96127993,74.46516000
31.00127993,74.46516000
31.04127993,74.46516000
31.08127993,74.46516000
31.12127993,74.46516000
31.16127993,75.35935000
31.20127993,75.35935000
31.24127993,75.35935000
31.28127993,75.35935000
31.32127993,75.35935000
31.36127993,75.35935000
31.40127993,75.35935000
31.44127993,75.35935000
31.48127993,73.57403000
31.52127993,77.14164000
31.56127993,75.35935000
31.60127993,74.46516000
31.64127993,74.46516000
31.68127992,75.35935000
31.72127992,75.35935000
31.76127992,75.35935000
31.80127992,75.35935000
31.84127992,75.35935000
31.88127992,75.35935000
31.92127992,75.35935000
31.96127992,75.35935000
32.00127992,74.46516000
32.04127992,75.35935000
32.08127992,74.46516000
32.12127992,74.46516000
32.16127992,74.46516000
32.20127992,74.46516000
32.24127992,73.57403000
32.28127992,74.46516000
32.32127992,73.57403000
32.36127992,72.68288000
32.40127992,72.68288000
32.44127992,72.68288000
32.48127992,72.68288000
32.52127992,72.68288000
32.56127992,71.79174000
32.60127992,71.79174000
32.64127992,71.79174000
32.68127992,71.79174000
32.72127992,71.79174000
32.76127992,70.90060000
32.80127992,71.79174000
32.84127992,70.90060000
32.88127992,70.90060000
32.92127992,70.90060000
32.96127992,70.00946000
33.00127992,70.90060000
33.04127992,69.11832000
33.08127992,70.00946000
33.12127992,69.11832000
33.16127992,68.22413000
33.20127992,69.11832000
33.24127992,68.22413000
33.28127992,68.22413000
33.32127991,68.22413000
33.36127991,67.33298000
33.40127991,67.33298000
33.44127991,67.33298000
33.48127991,66.44184000
33.52127991,64.65956000
33.56127991,64.65956000
33.60127991,64.65956000
33.64127991,64.65956000
33.68127991,64.65956000
33.72127991,64.65956000
33.76127991,63.76843000
33.80127991,63.76843000
33.84127991,63.76843000
33.88127991,61.98309000
33.92127991,61.09195000
33.96127991,61.09195000
34.00127991,61.09195000
34.04127991,61.09195000
34.08127991,60.20081000
34.12127991,60.20081000
34.16127991,60.20081000
34.20127991,58.41853000
34.24127991,58.41853000
34.28127991,57.52739000
34.32127991,57.52739000
34.36127991,56.63320000
34.40127991,56.63320000
34.44127991,55.74205000
34.48127991,55.74205000
34.52127991,54.85092000
34.56127991,53.95978000
34.60127991,53.95978000
34.64127991,53.95978000
34.68127991,53.06863000
34.72127991,53.06863000
34.76127991,52.17749000
34.80127991,52.17749000
34.84127991,50.39216000
34.88127991,50.39216000
34.92127991,50.39216000
34.96127990,49.50102000
35.00127990,49.50102000
35.04127990,47.71874000
35.08127990,46.82760000
35.12127990,46.82760000
35.16127990,46.82760000
35.20127990,45.93341000
35.24127990,45.93341000
35.28127990,44.15113000
35.32127990,44.15113000
35.36127990,43.25999000
35.40127990,42.36885000
35.44127990,42.36885000
35.48127990,41.47770000
35.52127990,40.58657000
35.56127990,39.69238000
35.60127990,39.69238000
35.64127990,39.69238000
35.68127990,38.80123000
35.72127990,37.91009000
35.76127990,37.01895000
35.80127990,36.12781000
35.84127990,36.12781000
35.88127990,36.12781000
35.92127990,35.23667000
35.96127990,33.45134000
36.00127990,33.45134000
36.04127990,32.56020000
36.08127990,32.56020000
36.12127990,31.66906000
36.16127990,31.66906000
36.20127990,29.88678000
36.24127990,28.99564000
36.28127990,28.99564000
36.32127990,28.99564000
36.36127990,28.10144000
36.40127990,26.31916000
36.44127990,25.42802000
36.48127990,24.53688000
36.52127990,24.53688000
36.56127990,24.53688000
36.60127989,24.53688000
36.64127989,21.86041000
36.68127989,21.86041000
36.72127989,21.86041000
36.76127989,20.96927000
36.80127989,19.18699000
36.84127989,19.18699000
36.88127989,18.29585000
36.92127989,17.40165000
36.96127989,17.40165000
37.00127989,15.61937000
37.04127989,15.61937000
37.08127989,14.72823000
37.12127989,13.83709000
37.16127989,13.83709000
37.20127989,12.05481000
37.24127989,11.16062000
37.28127989,11.16062000
37.32127989,10.26948000
37.36127989,10.26948000
37.40127989,9.37833800
37.44127989,7.59605700
37.48127989,7.59605700
37.52127989,6.70491600
37.56127989,6.70491600
37.60127989,4.91958400
37.64127989,4.02844300
37.68127989,4.02844300
37.72127989,3.13730300
37.76127989,3.13730300
37.80127989,1.35502200
37.84127989,0.46388130
37.88127989,0.46388130
37.92127989,-0.42725910
37.96127989,-0.42725910
38.00127989,-2.20954000
38.04127989,-3.10068000
38.08127989,-3.10068000
38.12127989,-3.99182100
38.16127989,-3.99182100
38.20127989,-6.66829400
38.24127988,-6.66829400
38.28127988,-6.66829400
38.32127988,-7.55943400
38.36127988,-9.34171500
38.40127988,-9.34171500
38.44127988,-10.23286000
38.48127988,-10.23286000
38.52127988,-11.12705000
38.56127988,-12.01819000
38.60127988,-12.90933000
38.64127988,-13.80047000
38.68127988,-13.80047000
38.72127988,-14.69161000
38.76127988,-16.47389000
38.80127988,-16.47389000
38.84127988,-17.36808000
38.88127988,-17.36808000
38.92127988,-18.25922000
38.96127988,-18.25922000
39.00127988,-20.04151000
39.04127988,-20.93265000
39.08127988,-20.93265000
39.12127988,-20.93265000
39.16127988,-22.71798000
39.20127988,-23.60912000
39.24127988,-24.50026000
39.28127988,-24.50026000
39.32127988,-25.39140000
39.36127988,-25.39140000
39.40127988,-27.17368000
39.44127988,-24.50026000
39.48127988,-28.95901000
39.52127988,-28.95901000
39.56127988,-28.06787000
39.60127988,-28.95901000
39.64127988,-29.85015000
39.68127988,-31.63244000
39.72127988,-31.63244000
39.76127988,-31.63244000
39.80127988,-32.52357000
39.84127988,-32.52357000
39.88127987,-34.30891000
39.92127987,-35.20005000
39.96127987,-35.20005000
40.00127987,-36.09119000
40.04127987,-36.09119000
40.08127987,-37.87347000
40.12127987,-37.87347000
40.16127987,-38.76461000
40.20127987,-38.76461000
40.24127987,-38.76461000
40.28127987,-40.54994000
40.32127987,-39.65880000
40.36127987,-41.44109000
40.40127987,-42.33222000
40.44127987,-42.33222000
40.48127987,-42.33222000
40.52127987,-43.22336000
40.56127987,-43.22336000
40.60127987,-45.00565000
40.64127987,-45.00565000
40.68127987,-45.89984000
40.72127987,-45.89984000
40.76127987,-46.79098000
40.80127987,-46.79098000
40.84127987,-46.79098000
40.88127987,-48.57326000
40.92127987,-48.57326000
40.96127987,-49.46440000
41.00127987,-49.46440000
41.04127987,-49.46440000
41.08127987,-50.35554000
41.12127987,-50.35554000
41.16127987,-52.14087000
41.20127987,-52.14087000
41.24127987,-53.03201000
41.28127987,-53.03201000
41.32127987,-53.92315000
41.36127987,-53.92315000
41.40127987,-54.81429000
41.44127987,-55.70544000
41.48127987,-55.70544000
41.52127987,-55.70544000
41.56127986,-56.59963000
41.60127986,-56.59963000
41.64127986,-56.59963000
41.68127986,-57.49076000
41.72127986,-57.49076000
41.76127986,-57.49076000
41.80127986,-58.38191000
41.84127986,-59.27305000
41.88127986,-59.27305000
41.92127986,-59.27305000
41.96127986,-60.16419000
42.00127986,-60.16419000
42.04127986,-60.16419000
42.08127986,-61.05533000
42.12127986,-61.05533000
42.16127986,-61.05533000
42.20127986,-61.05533000
42.24127986,-61.94647000
42.28127986,-61.94647000
42.32127986,-62.84066000
42.36127986,-62.84066000
42.40127986,-63.73180000
42.44127986,-63.73180000
42.48127986,-63.73180000
42.52127986,-63.73180000
42.56127986,-64.62294000
42.60127986,-64.62294000
42.64127986,-64.62294000
42.68127986,-64.62294000
42.72127986,-65.51408000
42.76127986,-66.40523000
42.80127986,-66.40523000
42.84127986,-66.40523000
42.88127986,-66.40523000
42.92127986,-66.40523000
42.96127986,-67.29636000
43.00127986,-67.29636000
43.04127986,-67.29636000
43.08127986,-67.29636000
43.12127986,-67.29636000
43.16127986,-67.29636000
43.20127985,-68.19056000
43.24127985,-67.29636000
43.28127985,-68.19056000
43.32127985,-68.19056000
43.36127985,-68.19056000
43.40127985,-68.19056000
43.44127985,-68.19056000
43.48127985,-68.19056000
43.52127985,-68.19056000
43.56127985,-68.19056000
43.60127985,-68.19056000
43.64127985,-68.19056000
43.68127985,-68.19056000
43.72127985,-69.08170000
43.76127985,-69.08170000
43.80127985,-68.19056000
43.84127985,-68.19056000
43.88127985,-69.08170000
43.92127985,-69.08170000
43.96127985,-68.19056000
44.00127985,-69.08170000
44.04127985,-68.19056000
44.08127985,-68.19056000
44.12127985,-68.19056000
44.16127985,-68.19056000
44.20127985,-68.19056000
44.24127985,-69.08170000
44.28127985,-69.08170000
44.32127985,-68.19056000
44.36127985,-68.19056000
44.40127985,-68.19056000
44.44127985,-68.19056000
44.48127985,-68.19056000
44.52127985,-68.19056000
44.56127985,-68.19056000
44.60127985,-68.19056000
44.64127985,-68.19056000
44.68127985,-67.29636000
44.72127985,-67.29636000
44.76127985,-67.29636000
44.80127985,-67.29636000
44.84127984,-67.29636000
44.88127984,-67.29636000
44.92127984,-67.29636000
44.96127984,-67.29636000
45.00127984,-67.29636000
45.04127984,-66.40523000
45.08127984,-66.40523000
45.12127984,-66.40523000
45.16127984,-66.40523000
45.20127984,-66.40523000
45.24127984,-65.51408000
45.28127984,-64.62294000
45.32127984,-63.73180000
45.36127984,-64.62294000
45.40127984,-64.62294000
45.44127984,-63.73180000
45.48127984,-63.73180000
45.52127984,-63.73180000
45.56127984,-63.73180000
45.60127984,-63.73180000
45.64127984,-62.84066000
45.68127984,-62.84066000
45.72127984,-62.84066000
45.76127984,-61.05533000
45.80127984,-61.05533000
45.84127984,-61.05533000
45.88127984,-61.05533000
45.92127984,-60.16419000
45.96127984,-60.16419000
46.00127984,-60.16419000
46.04127984,-59.27305000
46.08127984,-59.27305000
46.12127984,-59.27305000
46.16127984,-57.49076000
46.20127984,-57.49076000
46.24127984,-57.49076000
46.28127984,-56.59963000
46.32127984,-59.27305000
46.36127984,-56.59963000
46.40127984,-53.92315000
46.44127984,-54.81429000
46.48127983,-54.81429000
46.52127983,-54.81429000
46.56127983,-53.92315000
46.60127983,-53.03201000
46.64127983,-53.03201000
46.68127983,-53.03201000
46.72127983,-53.03201000
46.76127983,-52.14087000
46.80127983,-51.24973000
46.84127983,-50.35554000
46.88127983,-49.46440000
46.92127983,-49.46440000
46.96127983,-49.46440000
47.00127983,-49.46440000
47.04127983,-48.57326000
47.08127983,-48.57326000
47.12127983,-46.79098000
47.16127983,-45.89984000
47.20127983,-46.79098000
47.24127983,-45.89984000
47.28127983,-45.89984000
47.32127983,-45.00565000
47.36127983,-44.11451000
47.40127983,-43.22336000
47.44127983,-43.22336000
47.48127983,-42.33222000
47.52127983,-42.33222000
47.56127983,-41.44109000
47.60127983,-41.44109000
47.64127983,-40.54994000
47.68127983,-38.76461000
47.72127983,-38.76461000
47.76127983,-38.76461000
47.80127983,-37.87347000
47.84127983,-37.87347000
47.88127983,-36.09119000
47.92127983,-35.20005000
47.96127983,-35.20005000
48.00127983,-35.20005000
48.04127983,-34.30891000
48.08127983,-34.30891000
48.12127982,-32.52357000
48.16127982,-31.63244000
48.20127982,-31.63244000
48.24127982,-31.63244000
48.28127982,-30.74129000
48.32127982,-29.85015000
48.36127982,-29.85015000
48.40127982,-28.95901000
48.44127982,-28.06787000
48.48127982,-27.17368000
48.52127982,-27.17368000
48.56127982,-25.39140000
48.60127982,-25.39140000
48.64127982,-24.50026000
48.68127982,-24.50026000
48.72127982,-22.71798000
48.76127982,-21.82379000
48.80127982,-21.82379000
48.84127982,-20.93265000
48.88127982,-20.93265000
48.92127982,-20.04151000
48.96127982,-19.15036000
49.00127982,-18.25922000
49.04127982,-17.36808000
49.08127982,-17.36808000
49.12127982,-17.36808000
49.16127982,-15.58275000
49.20127982,-14.69161000
49.24127982,-14.69161000
49.28127982,-13.80047000
49.32127982,-13.80047000
49.36127982,-12.01819000
49.40127982,-11.12705000
49.44127982,-11.12705000
49.48127982,-10.23286000
49.52127982,-9.34171500
49.56127982,-9.34171500
49.60127982,-7.55943400
49.64127982,-7.55943400
49.68127982,-6.66829400
49.72127982,-6.66829400
49.76127981,-4.88296100
49.80127981,-3.99182100
49.84127981,-3.10068000
49.88127981,-3.10068000
49.92127981,-2.20954000
49.96127981,-2.20954000
50.00127981,-0.42725910
50.04127981,0.46388130
50.08127981,0.46388130
50.12127981,1.35502200
50.16127981,2.24616200
50.20127981,3.13730300
50.24127981,3.13730300
50.28127981,4.02844300
50.32127981,4.91958400
50.36127981,5.81072400
50.40127981,6.70491600
50.44127981,7.59605700
50.48127981,7.59605700
50.52127981,8.48719700
50.56127981,9.37833800
50.60127981,10.26948000
50.64127981,11.16062000
50.68127981,11.16062000
50.72127981,12.05481000
50.76127981,13.83709000
50.80127981,13.83709000
50.84127981,14.72823000
50.88127981,14.72823000
50.92127981,15.61937000
50.96127981,16.51051000
51.00127981,17.40165000
51.04127981,18.29585000
51.08127981,18.29585000
51.12127981,19.18699000
51.16127981,20.07813000
51.20127981,20.96927000
51.24127981,21.86041000
51.28127981,21.86041000
51.32127981,22.75155000
51.36127981,23.64574000
51.40127980,24.53688000
51.44127980,25.42802000
51.48127980,26.31916000
51.52127980,26.31916000
51.56127980,27.21030000
51.60127980,27.21030000
51.64127980,28.10144000
51.68127980,28.99564000
51.72127980,29.88678000
51.76127980,30.77792000
51.80127980,31.66906000
51.84127980,31.66906000
51.88127980,32.56020000
51.92127980,32.56020000
51.96127980,33.45134000
52.00127980,33.45134000
52.04127980,35.23667000
52.08127980,35.23667000
52.12127980,36.12781000
52.16127980,37.01895000
52.20127980,37.01895000
52.24127980,38.80123000
52.28127980,39.69238000
52.32127980,38.80123000
52.36127980,40.58657000
52.40127980,41.47770000
52.44127980,42.36885000
52.48127980,42.36885000
52.52127980,42.36885000
52.56127980,43.25999000
52.60127980,44.15113000
52.64127980,44.15113000
52.68127980,45.04227000
52.72127980,45.93341000
52.76127980,45.93341000
52.80127980,46.82760000
52.84127980,46.82760000
52.88127980,47.71874000
52.92127980,47.71874000
52.96127980,49.50102000
53.00127980,49.50102000
53.04127979,50.39216000
53.08127979,50.39216000
53.12127979,50.39216000
53.16127979,51.28331000
53.20127979,52.17749000
53.24127979,53.06863000
53.28127979,53.06863000
53.32127979,53.95978000
53.36127979,53.95978000
53.40127979,54.85092000
53.44127979,55.74205000
53.48127979,55.74205000
53.52127979,56.63320000
53.56127979,56.63320000
53.60127979,57.52739000
53.64127979,57.52739000
53.68127979,57.52739000
53.72127979,58.41853000
53.76127979,59.30967000
53.80127979,60.20081000
53.84127979,60.20081000
53.88127979,61.09195000
53.92127979,61.09195000
53.96127979,61.09195000
54.00127979,61.09195000
54.04127979,61.98309000
54.08127979,61.98309000
54.12127979,62.87423000
54.16127979,63.76843000
54.20127979,64.65956000
54.24127979,64.65956000
54.28127979,64.65956000
54.32127979,64.65956000
54.36127979,64.65956000
54.40127979,67.33298000
54.44127979,64.65956000
54.48127979,65.55070000
54.52127979,67.33298000
54.56127979,68.22413000
54.60127979,68.22413000
54.64127979,67.33298000
54.68127979,68.22413000
54.72127978,68.22413000
54.76127978,68.22413000
54.80127978,69.11832000
54.84127978,69.11832000
54.88127978,69.11832000
54.92127978,70.90060000
54.96127978,70.90060000
55.00127978,70.90060000
55.04127978,70.90060000
55.08127978,71.79174000
55.12127978,70.90060000
55.16127978,71.79174000
55.20127978,71.79174000
55.24127978,71.79174000
55.28127978,71.79174000
55.32127978,71.79174000
55.36127978,72.68288000
55.40127978,72.68288000
55.44127978,72.68288000
55.48127978,72.68288000
55.52127978,73.57403000
55.56127978,73.57403000
55.60127978,73.57403000
55.64127978,74.46516000
55.68127978,73.57403000
55.72127978,74.46516000
55.76127978,74.46516000
55.80127978,74.46516000
55.84127978,74.46516000
55.88127978,74.46516000
55.92127978,74.46516000
55.96127978,74.46516000
56.00127978,74.46516000
56.04127978,75.35935000
56.08127978,74.46516000
56.12127978,75.35935000
56.16127978,75.35935000
56.20127978,75.35935000
56.24127978,75.35935000
56.28127978,75.35935000
56.32127978,75.35935000
56.36127977,75.35935000
56.40127977,75.35935000
56.44127977,75.35935000
56.48127977,75.35935000
56.52127977,75.35935000
56.56127977,75.35935000
56.60127977,75.35935000
56.64127977,75.35935000
56.68127977,75.35935000
56.72127977,75.35935000
56.76127977,74.46516000
56.80127977,74.46516000
56.84127977,75.35935000
56.88127977,75.35935000
56.92127977,74.46516000
56.96127977,75.35935000
57.00127977,74.46516000
57.04127977,75.35935000
57.08127977,74.46516000
57.12127977,74.46516000
57.16127977,74.46516000
57.20127977,74.46516000
57.24127977,73.57403000
57.28127977,74.46516000
57.32127977,73.57403000
57.36127977,73.57403000
57.40127977,73.57403000
57.44127977,73.57403000
57.48127977,72.68288000
57.52127977,72.68288000
57.56127977,72.68288000
57.60127977,72.68288000
57.64127977,71.79174000
57.68127977,71.79174000
57.72127977,71.79174000
57.76127977,71.79174000
57.80127977,70.90060000
57.84127977,70.90060000
57.88127977,70.90060000
57.92127977,70.90060000
57.96127977,70.00946000
58.00127976,70.00946000
58.04127976,69.11832000
58.08127976,69.11832000
58.12127976,69.11832000
58.16127976,69.11832000
58.20127976,69.11832000
58.24127976,68.22413000
58.28127976,68.22413000
58.32127976,68.22413000
58.36127976,67.33298000
58.40127976,67.33298000
58.44127976,66.44184000
58.48127976,66.44184000
58.52127976,65.55070000
58.56127976,65.55070000
58.60127976,66.44184000
58.64127976,64.65956000
58.68127976,63.76843000
58.72127976,64.65956000
58.76127976,64.65956000
58.80127976,63.76843000
58.84127976,61.98309000
58.88127976,61.98309000
58.92127976,61.09195000
58.96127976,61.98309000
59.00127976,61.09195000
59.04127976,60.20081000
59.08127976,60.20081000
59.12127976,59.30967000
59.16127976,59.30967000
59.20127976,58.41853000
59.24127976,58.41853000
59.28127976,57.52739000
59.32127976,57.52739000
59.36127976,56.63320000
59.40127976,56.63320000
59.44127976,56.63320000
59.48127976,54.85092000
59.52127976,54.85092000
59.56127976,53.95978000
59.60127976,53.95978000
59.64127975,53.95978000
59.68127975,53.06863000
59.72127975,53.06863000
59.76127975,52.17749000
59.80127975,51.28331000
59.84127975,50.39216000
59.88127975,50.39216000
59.92127975,49.50102000
59.96127975,49.50102000
60.00127975,48.60988000
60.04127975,47.71874000
60.08127975,47.71874000
60.12127975,46.82760000
60.16127975,46.82760000
60.20127975,45.93341000
60.24127975,45.04227000
60.28127975,44.15113000
60.32127975,44.15113000
60.36127975,43.25999000
60.40127975,43.25999000
60.44127975,42.36885000
60.48127975,41.47770000
60.52127975,41.47770000
60.56127975,40.58657000
60.60127975,39.69238000
60.64127975,39.69238000
60.68127975,38.80123000
60.72127975,37.01895000
60.76127975,37.01895000
60.80127975,37.01895000
60.84127975,36.12781000
60.88127975,35.23667000
60.92127975,35.23667000
60.96127975,33.45134000
61.00127975,33.45134000
61.04127975,32.56020000
61.08127975,32.56020000
61.12127975,32.56020000
61.16127975,28.99564000
61.20127975,29.88678000
61.24127975,28.99564000
61.28127974,28.99564000
61.32127974,28.99564000
61.36127974,28.10144000
61.40127974,26.31916000
61.44127974,26.31916000
61.48127974,25.42802000
61.52127974,24.53688000
61.56127974,23.64574000
61.60127974,22.75155000
61.64127974,21.86041000
61.68127974,21.86041000
61.72127974,21.86041000
61.76127974,20.96927000
61.80127974,19.18699000
61.84127974,19.18699000
61.88127974,18.29585000
61.92127974,17.40165000
61.96127974,17.40165000
62.00127974,15.61937000
62.04127974,14.72823000
62.08127974,14.72823000
62.12127974,13.83709000
62.16127974,13.83709000
62.20127974,12.05481000
62.24127974,12.05481000
62.28127974,11.16062000
62.32127974,10.26948000
62.36127974,10.26948000
62.40127974,8.48719700
62.44127974,7.59605700
62.48127974,7.59605700
62.52127974,7.59605700
62.56127974,6.70491600
62.60127974,4.91958400
62.64127974,4.02844300
62.68127974,4.02844300
62.72127974,3.13730300
62.76127974,3.13730300
62.80127974,1.35502200
62.84127974,0.46388130
62.88127974,0.46388130
62.92127973,-0.42725910
62.96127973,-1.31840000
63.00127973,-2.20954000
63.04127973,-3.10068000
63.08127973,-3.10068000
63.12127973,-3.99182100
63.16127973,-3.99182100
63.20127973,-5.77715400
63.24127973,-6.66829400
63.28127973,-7.55943400
63.32127973,-7.55943400
63.36127973,-9.34171500
63.40127973,-9.34171500
63.44127973,-10.23286000
63.48127973,-11.12705000
63.52127973,-11.12705000
63.56127973,-12.01819000
63.60127973,-12.90933000
63.64127973,-13.80047000
63.68127973,-13.80047000
63.72127973,-14.69161000
63.76127973,-15.58275000
63.80127973,-16.47389000
63.84127973,-17.36808000
63.88127973,-17.36808000
63.92127973,-18.25922000
63.96127973,-19.15036000
64.00127973,-20.04151000
64.04127973,-20.04151000
64.08127973,-20.93265000
64.12127973,-21.82379000
64.16127973,-21.82379000
64.20127973,-23.60912000
64.24127973,-23.60912000
64.28127973,-24.50026000
64.32127973,-25.39140000
64.36127973,-25.39140000
64.40127973,-26.28254000
64.44127973,-27.17368000
64.48127973,-28.06787000
64.52127973,-28.06787000
64.56127972,-28.95901000
64.60127972,-29.85015000
64.64127972,-30.74129000
64.68127972,-31.63244000
64.72127972,-31.63244000
64.76127972,-31.63244000
64.80127972,-32.52357000
64.84127972,-34.30891000
64.88127972,-35.20005000
64.92127972,-35.20005000
64.96127972,-35.20005000
65.00127972,-36.09119000
65.04127972,-36.09119000
65.08127972,-37.87347000
65.12127972,-37.87347000
65.16127972,-38.76461000
65.20127972,-38.76461000
65.24127972,-39.65880000
65.28127972,-39.65880000
65.32127972,-41.44109000
65.36127972,-41.44109000
65.40127972,-42.33222000
65.44127972,-42.33222000
65.48127972,-42.33222000
65.52127972,-43.22336000
65.56127972,-44.11451000
65.60127972,-44.11451000
65.64127972,-45.89984000
65.68127972,-45.89984000
65.72127972,-45.89984000
65.76127972,-46.79098000
65.80127972,-46.79098000
65.84127972,-47.68212000
65.88127972,-48.57326000
65.92127972,-48.57326000
65.96127972,-49.46440000
66.00127972,-49.46440000
66.04127972,-50.35554000
66.08127972,-50.35554000
66.12127972,-52.14087000
66.16127972,-52.14087000
66.20127972,-52.14087000
66.24127971,-53.03201000
66.28127971,-53.92315000
66.32127971,-53.92315000
66.36127971,-53.03201000
66.40127971,-53.92315000
66.44127971,-54.81429000
66.48127971,-55.70544000
66.52127971,-55.70544000
66.56127971,-56.59963000
66.60127971,-56.59963000
66.64127971,-56.59963000
66.68127971,-57.49076000
66.72127971,-57.49076000
66.76127971,-58.38191000
66.80127971,-59.27305000
66.84127971,-59.27305000
66.88127971,-59.27305000
66.92127971,-60.16419000
66.96127971,-60.16419000
67.00127971,-60.16419000
67.04127971,-60.16419000
67.08127971,-61.05533000
67.12127971,-61.05533000
67.16127971,-61.05533000
67.20127971,-61.94647000
67.24127971,-61.94647000
67.28127971,-62.84066000
67.32127971,-62.84066000
67.36127971,-63.73180000
67.40127971,-63.73180000
67.44127971,-63.73180000
67.48127971,-63.73180000
67.52127971,-63.73180000
67.56127971,-64.62294000
67.60127971,-64.62294000
67.64127971,-64.62294000
67.68127971,-64.62294000
67.72127971,-64.62294000
67.76127971,-66.40523000
67.80127971,-66.40523000
67.84127971,-66.40523000
67.88127970,-66.40523000
67.92127970,-66.40523000
67.96127970,-67.29636000
68.00127970,-67.29636000
68.04127970,-67.29636000
68.08127970,-67.29636000
68.12127970,-67.29636000
68.16127970,-68.19056000
68.20127970,-68.19056000
68.24127970,-68.19056000
68.28127970,-67.29636000
68.32127970,-68.19056000
68.36127970,-68.19056000
68.40127970,-68.19056000
68.44127970,-68.19056000
68.48127970,-68.19056000
68.52127970,-68.19056000
68.56127970,-68.19056000
68.60127970,-68.19056000
68.64127970,-68.19056000
68.68127970,-68.19056000
68.72127970,-68.19056000
68.76127970,-69.08170000
68.80127970,-68.19056000
68.84127970,-68.19056000
68.88127970,-69.08170000
68.92127970,-69.08170000
68.96127970,-68.19056000
69.00127970,-69.08170000
69.04127970,-69.08170000
69.08127970,-69.97284000
69.12127970,-69.97284000
69.16127970,-67.29636000
69.20127970,-69.97284000
69.24127970,-69.97284000
69.28127970,-69.08170000
69.32127970,-69.08170000
69.36127970,-68.19056000
69.40127970,-68.19056000
69.44127970,-69.08170000
69.48127970,-68.19056000
69.52127969,-68.19056000
69.56127969,-68.19056000
69.60127969,-68.19056000
69.64127969,-67.29636000
69.68127969,-68.19056000
69.72127969,-67.29636000
69.76127969,-67.29636000
69.80127969,-67.29636000
69.84127969,-67.29636000
69.88127969,-67.29636000
69.92127969,-67.29636000
69.96127969,-66.40523000
70.00127969,-66.40523000
70.04127969,-66.40523000
70.08127969,-66.40523000
70.12127969,-66.40523000
70.16127969,-66.40523000
70.20127969,-65.51408000
70.24127969,-64.62294000
70.28127969,-65.51408000
70.32127969,-64.62294000
70.36127969,-64.62294000
70.40127969,-63.73180000
70.44127969,-63.73180000
70.48127969,-63.73180000
70.52127969,-63.73180000
70.56127969,-63.73180000
70.60127969,-63.73180000
70.64127969,-63.73180000
70.68127969,-62.84066000
70.72127969,-61.94647000
70.76127969,-61.94647000
70.80127969,-61.05533000
70.84127969,-61.05533000
70.88127969,-60.16419000
70.92127969,-60.16419000
70.96127969,-60.16419000
71.00127969,-60.16419000
71.04127969,-59.27305000
71.08127969,-59.27305000
71.12127969,-58.38191000
71.16127968,-58.38191000
71.20127968,-57.49076000
71.24127968,-57.49076000
71.28127968,-56.59963000
71.32127968,-56.59963000
71.36127968,-56.59963000
71.40127968,-55.70544000
71.44127968,-55.70544000
71.48127968,-55.70544000
71.52127968,-54.81429000
71.56127968,-54.81429000
71.60127968,-53.92315000
71.64127968,-53.03201000
71.68127968,-53.03201000
71.72127968,-52.14087000
71.76127968,-52.14087000
71.80127968,-51.24973000
71.84127968,-51.24973000
71.88127968,-50.35554000
71.92127968,-49.46440000
71.96127968,-49.46440000
72.00127968,-49.46440000
72.04127968,-48.57326000
72.08127968,-48.57326000
72.12127968,-46.79098000
72.16127968,-46.79098000
72.20127968,-45.89984000
72.24127968,-45.89984000
72.28127968,-45.89984000
72.32127968,-44.11451000
72.36127968,-44.11451000
72.40127968,-43.22336000
72.44127968,-43.22336000
72.48127968,-42.33222000
72.52127968,-41.44109000
72.56127968,-42.33222000
72.60127968,-41.44109000
72.64127968,-40.54994000
72.68127968,-39.65880000
72.72127968,-38.76461000
72.76127968,-38.76461000
72.80127967,-37.87347000
72.84127967,-37.87347000
72.88127967,-36.98233000
72.92127967,-36.09119000
72.96127967,-35.20005000
73.00127967,-35.20005000
73.04127967,-34.30891000
73.08127967,-34.30891000
73.12127967,-33.41471000
73.16127967,-32.52357000
73.20127967,-31.63244000
73.24127967,-31.63244000
73.28127967,-30.74129000
73.32127967,-29.85015000
73.36127967,-28.06787000
73.40127967,-28.95901000
73.44127967,-28.95901000
73.48127967,-27.17368000
73.52127967,-26.28254000
73.56127967,-25.39140000
73.60127967,-25.39140000
73.64127967,-24.50026000
73.68127967,-24.50026000
73.72127967,-22.71798000
73.76127967,-22.71798000
73.80127967,-21.82379000
73.84127967,-20.93265000
73.88127967,-20.93265000
73.92127967,-20.93265000
73.96127967,-19.15036000
74.00127967,-19.15036000
74.04127967,-18.25922000
74.08127967,-17.36808000
74.12127967,-17.36808000
74.16127967,-16.47389000
74.20127967,-15.58275000
74.24127967,-14.69161000
74.28127967,-13.80047000
74.32127967,-13.80047000
74.36127967,-12.01819000
74.40127967,-11.12705000
74.44127966,-11.12705000
74.48127966,-10.23286000
74.52127966,-9.34171500
74.56127966,-8.45057600
74.60127966,-7.55943400
74.64127966,-6.66829400
74.68127966,-6.66829400
74.72127966,-5.77715400
74.76127966,-4.88296100
74.80127966,-3.99182100
74.84127966,-3.10068000
74.88127966,-3.10068000
74.92127966,-2.20954000
74.96127966,-1.31840000
75.00127966,-0.42725910
75.04127966,-0.42725910
75.08127966,0.46388130
75.12127966,1.35502200
75.16127966,2.24616200
75.20127966,3.13730300
75.24127966,3.13730300
75.28127966,4.02844300
75.32127966,4.91958400
75.36127966,4.91958400
75.40127966,6.70491600
75.44127966,7.59605700
75.48127966,7.59605700
75.52127966,8.48719700
75.56127966,9.37833800
75.60127966,10.26948000
75.64127966,10.26948000
75.68127966,11.16062000
75.72127966,12.05481000
75.76127966,13.83709000
75.80127966,13.83709000
75.84127966,14.72823000
75.88127966,14.72823000
75.92127966,16.51051000
75.96127966,17.40165000
76.00127966,14.72823000
76.04127966,18.29585000
76.08127965,19.18699000
76.12127965,19.18699000
76.16127965,19.18699000
76.20127965,20.07813000
76.24127965,21.86041000
76.28127965,21.86041000
76.32127965,22.75155000
76.36127965,23.64574000
76.40127965,24.53688000
76.44127965,24.53688000
76.48127965,25.42802000
76.52127965,26.31916000
76.56127965,27.21030000
76.60127965,28.10144000
76.64127965,28.10144000
76.68127965,28.99564000
76.72127965,29.88678000
76.76127965,30.77792000
76.80127965,31.66906000
76.84127965,31.66906000
76.88127965,32.56020000
76.92127965,32.56020000
76.96127965,33.45134000
77.00127965,34.34248000
77.04127965,35.23667000
77.08127965,36.12781000
77.12127965,36.12781000
77.16127965,37.01895000
77.20127965,37.91009000
77.24127965,37.91009000
77.28127965,39.69238000
77.32127965,38.80123000
77.36127965,39.69238000
77.40127965,40.58657000
77.44127965,40.58657000
77.48127965,42.36885000
77.52127965,42.36885000
77.56127965,43.25999000
77.60127965,43.25999000
77.64127965,44.15113000
77.68127965,44.15113000
77.72127965,45.04227000
77.76127964,45.93341000
77.80127964,46.82760000
77.84127964,46.82760000
77.88127964,47.71874000
77.92127964,47.71874000
77.96127964,48.60988000
78.00127964,49.50102000
78.04127964,49.50102000
78.08127964,50.39216000
78.12127964,50.39216000
78.16127964,51.28331000
78.20127964,53.06863000
78.24127964,53.06863000
78.28127964,53.95978000
78.32127964,53.06863000
78.36127964,53.95978000
78.40127964,53.95978000
78.44127964,54.85092000
78.48127964,55.74205000
78.52127964,56.63320000
78.56127964,56.63320000
78.60127964,57.52739000
78.64127964,57.52739000
78.68127964,57.52739000
78.72127964,58.41853000
78.76127964,59.30967000
78.80127964,59.30967000
78.84127964,60.20081000
78.88127964,60.20081000
78.92127964,61.09195000
78.96127964,61.09195000
79.00127964,61.09195000
79.04127964,61.98309000
79.08127964,61.98309000
79.12127964,61.98309000
79.16127964,63.76843000
79.20127964,63.76843000
79.24127964,64.65956000
79.28127964,64.65956000
79.32127964,64.65956000
79.36127964,65.55070000
79.40127963,65.55070000
79.44127963,65.55070000
79.48127963,66.44184000
79.52127963,66.44184000
79.56127963,67.33298000
79.60127963,67.33298000
79.64127963,67.33298000
79.68127963,68.22413000
79.72127963,68.22413000
79.76127963,68.22413000
79.80127963,69.11832000
79.84127963,69.11832000
79.88127963,69.11832000
79.92127963,69.11832000
79.96127963,70.00946000
80.00127963,70.00946000
80.04127963,70.90060000
80.08127963,70.90060000
80.12127963,70.90060000
80.16127963,71.79174000
80.20127963,71.79174000
80.24127963,71.79174000
80.28127963,71.79174000
80.32127963,71.79174000
80.36127963,72.68288000
80.40127963,71.79174000
80.44127963,72.68288000
80.48127963,72.68288000
80.52127963,72.68288000
80.56127963,73.57403000
80.60127963,73.57403000
80.64127963,73.57403000
80.68127963,73.57403000
80.72127963,74.46516000
80.76127963,74.46516000
80.80127963,74.46516000
80.84127963,74.46516000
80.88127963,74.46516000
80.92127963,74.46516000
80.96127963,74.46516000
81.00127963,74.46516000
81.04127962,75.35935000
81.08127962,74.46516000
81.12127962,75.35935000
81.16127962,75.35935000
81.20127962,75.35935000
81.24127962,74.46516000
81.28127962,76.25050000
81.32127962,75.35935000
81.36127962,74.46516000
81.40127962,75.35935000
81.44127962,75.35935000
81.48127962,75.35935000
81.52127962,75.35935000
81.56127962,75.35935000
81.60127962,75.35935000
81.64127962,75.35935000
81.68127962,75.35935000
81.72127962,75.35935000
81.76127962,75.35935000
81.80127962,75.35935000
81.84127962,75.35935000
81.88127962,75.35935000
81.92127962,75.35935000
81.96127962,75.35935000
82.00127962,74.46516000
82.04127962,74.46516000
82.08127962,74.46516000
82.12127962,74.46516000
82.16127962,74.46516000
82.20127962,74.46516000
82.24127962,73.57403000
82.28127962,74.46516000
82.32127962,73.57403000
82.36127962,72.68288000
82.40127962,72.68288000
82.44127962,72.68288000
82.48127962,72.68288000
82.52127962,72.68288000
82.56127962,72.68288000
82.60127962,71.79174000
82.64127962,71.79174000
82.68127961,71.79174000
82.72127961,71.79174000
82.76127961,71.79174000
82.80127961,71.79174000
82.84127961,70.90060000
82.88127961,70.90060000
82.92127961,70.90060000
82.96127961,70.00946000
83.00127961,70.00946000
83.04127961,70.00946000
83.08127961,69.11832000
83.12127961,69.11832000
83.16127961,68.22413000
83.20127961,68.22413000
83.24127961,68.22413000
83.28127961,68.22413000
83.32127961,67.33298000
83.36127961,67.33298000
83.40127961,67.33298000
83.44127961,66.44184000
83.48127961,66.44184000
83.52127961,64.65956000
83.56127961,65.55070000
83.60127961,64.65956000
83.64127961,64.65956000
83.68127961,64.65956000
83.72127961,63.76843000
83.76127961,63.76843000
83.80127961,61.98309000
83.84127961,61.98309000
83.88127961,61.98309000
83.92127961,61.98309000
83.96127961,61.98309000
84.00127961,61.09195000
84.04127961,61.98309000
84.08127961,58.41853000
84.12127961,59.30967000
84.16127961,60.20081000
84.20127961,59.30967000
84.24127961,59.30967000
84.28127961,57.52739000
84.32127960,57.52739000
84.36127960,56.63320000
84.40127960,56.63320000
84.44127960,56.63320000
84.48127960,55.74205000
84.52127960,53.95978000
84.56127960,53.95978000
84.60127960,53.95978000
84.64127960,53.95978000
84.68127960,53.06863000
84.72127960,52.17749000
84.76127960,52.17749000
84.80127960,51.28331000
84.84127960,50.39216000
84.88127960,50.39216000
84.92127960,49.50102000
84.96127960,49.50102000
85.00127960,47.71874000
85.04127960,47.71874000
85.08127960,47.71874000
85.12127960,46.82760000
85.16127960,45.93341000
85.20127960,45.93341000
85.24127960,45.04227000
85.28127960,44.15113000
85.32127960,43.25999000
85.36127960,43.25999000
85.40127960,43.25999000
85.44127960,42.36885000
85.48127960,41.47770000
85.52127960,40.58657000
85.56127960,39.69238000
85.60127960,39.69238000
85.64127960,38.80123000
85.68127960,38.80123000
85.72127960,37.01895000
85.76127960,36.12781000
85.80127960,36.12781000
85.84127960,36.12781000
85.88127960,35.23667000
85.92127960,35.23667000
85.96127959,34.34248000
86.00127959,33.45134000
86.04127959,32.56020000
86.08127959,31.66906000
86.12127959,31.66906000
86.16127959,29.88678000
86.20127959,30.77792000
86.24127959,28.99564000
86.28127959,28.99564000
86.32127959,28.10144000
86.36127959,28.10144000
86.40127959,26.31916000
86.44127959,25.42802000
86.48127959,25.42802000
86.52127959,24.53688000
86.56127959,23.64574000
86.60127959,22.75155000
86.64127959,21.86041000
86.68127959,21.86041000
86.72127959,20.96927000
86.76127959,20.07813000
86.80127959,19.18699000
86.84127959,18.29585000
86.88127959,18.29585000
86.92127959,17.40165000
86.96127959,17.40165000
87.00127959,15.61937000
87.04127959,14.72823000
87.08127959,13.83709000
87.12127959,13.83709000
87.16127959,12.94595000
87.20127959,12.05481000
87.24127959,12.05481000
87.28127959,11.16062000
87.32127959,10.26948000
87.36127959,10.26948000
87.40127959,8.48719700
87.44127959,7.59605700
87.48127959,7.59605700
87.52127959,6.70491600
87.56127959,6.70491600
87.60127958,4.91958400
87.64127958,4.02844300
87.68127958,4.02844300
87.72127958,3.13730300
87.76127958,2.24616200
87.80127958,1.35502200
87.84127958,0.46388130
87.88127958,0.46388130
87.92127958,-0.42725910
87.96127958,-1.31840000
88.00127958,-2.20954000
88.04127958,-3.10068000
88.08127958,-3.99182100
88.12127958,-3.99182100
88.16127958,-3.99182100
88.20127958,-5.77715400
88.24127958,-7.55943400
88.28127958,-5.77715400
88.32127958,-6.66829400
88.36127958,-9.34171500
88.40127958,-9.34171500
88.44127958,-10.23286000
88.48127958,-11.12705000
88.52127958,-11.12705000
88.56127958,-12.01819000
88.60127958,-12.90933000
88.64127958,-13.80047000
88.68127958,-13.80047000
88.72127958,-14.69161000
88.76127958,-16.47389000
88.80127958,-16.47389000
88.84127958,-17.36808000
88.88127958,-17.36808000
88.92127958,-18.25922000
88.96127958,-19.15036000
89.00127958,-20.04151000
89.04127958,-20.93265000
89.08127958,-20.93265000
89.12127958,-21.82379000
89.16127958,-21.82379000
89.20127958,-23.60912000
89.24127957,-23.60912000
89.28127957,-24.50026000
89.32127957,-25.39140000
89.36127957,-25.39140000
89.40127957,-26.28254000
89.44127957,-27.17368000
89.48127957,-28.06787000
89.52127957,-28.06787000
89.56127957,-28.95901000
89.60127957,-29.85015000
89.64127957,-30.74129000
89.68127957,-30.74129000
89.72127957,-31.63244000
89.76127957,-31.63244000
89.80127957,-32.52357000
89.84127957,-33.41471000
89.88127957,-34.30891000
89.92127957,-35.20005000
89.96127957,-35.20005000
90.00127957,-36.09119000
90.04127957,-36.09119000
90.08127957,-37.87347000
90.12127957,-37.87347000
90.16127957,-38.76461000
90.20127957,-38.76461000
90.24127957,-39.65880000
90.28127957,-39.65880000
90.32127957,-41.44109000
90.36127957,-42.33222000
90.40127957,-42.33222000
90.44127957,-42.33222000
90.48127957,-43.22336000
90.52127957,-43.22336000
90.56127957,-45.00565000
90.60127957,-45.00565000
90.64127957,-45.00565000
90.68127957,-46.79098000
90.72127957,-47.68212000
90.76127957,-45.00565000
90.80127957,-45.89984000
90.84127957,-47.68212000
90.88127957,-48.57326000
90.92127956,-49.46440000
90.96127956,-49.46440000
91.00127956,-49.46440000
91.04127956,-50.35554000
91.08127956,-50.35554000
91.12127956,-51.24973000
91.16127956,-52.14087000
91.20127956,-53.03201000
91.24127956,-53.03201000
91.28127956,-53.03201000
91.32127956,-53.92315000
91.36127956,-53.92315000
91.40127956,-54.81429000
91.44127956,-54.81429000
91.48127956,-55.70544000
91.52127956,-55.70544000
91.56127956,-55.70544000
91.60127956,-56.59963000
91.64127956,-56.59963000
91.68127956,-57.49076000
91.72127956,-57.49076000
91.76127956,-58.38191000
91.80127956,-58.38191000
91.84127956,-59.27305000
91.88127956,-59.27305000
91.92127956,-60.16419000
91.96127956,-60.16419000
92.00127956,-60.16419000
92.04127956,-60.16419000
92.08127956,-61.05533000
92.12127956,-61.05533000
92.16127956,-61.05533000
92.20127956,-61.05533000
92.24127956,-61.94647000
92.28127956,-62.84066000
92.32127956,-63.73180000
92.36127956,-63.73180000
92.40127956,-63.73180000
92.44127956,-63.73180000
92.48127956,-63.73180000
92.52127956,-63.73180000
92.56127955,-64.62294000
92.60127955,-64.62294000
92.64127955,-65.51408000
92.68127955,-65.51408000
92.72127955,-66.40523000
92.76127955,-66.40523000
92.80127955,-66.40523000
92.84127955,-66.40523000
92.88127955,-67.29636000
92.92127955,-67.29636000
92.96127955,-67.29636000
93.00127955,-67.29636000
93.04127955,-67.29636000
93.08127955,-67.29636000
93.12127955,-67.29636000
93.16127955,-67.29636000
93.20127955,-67.29636000
93.24127955,-67.29636000
93.28127955,-68.19056000
93.32127955,-67.29636000
93.36127955,-68.19056000
93.40127955,-68.19056000
93.44127955,-68.19056000
93.48127955,-68.19056000
93.52127955,-67.29636000
93.56127955,-68.19056000
93.60127955,-69.08170000
93.64127955,-69.08170000
93.68127955,-68.19056000
93.72127955,-68.19056000
93.76127955,-69.08170000
93.80127955,-69.08170000
93.84127955,-69.08170000
93.88127955,-69.08170000
93.92127955,-68.19056000
93.96127955,-69.08170000
94.00127955,-69.08170000
94.04127955,-69.08170000
94.08127955,-69.08170000
94.12127955,-69.08170000
94.16127955,-68.19056000
94.20127954,-68.19056000
94.24127954,-69.08170000
94.28127954,-68.19056000
94.32127954,-69.08170000
94.36127954,-68.19056000
94.40127954,-68.19056000
94.44127954,-68.19056000
94.48127954,-68.19056000
94.52127954,-68.19056000
94.56127954,-68.19056000
94.60127954,-68.19056000
94.64127954,-68.19056000
94.68127954,-68.19056000
94.72127954,-67.29636000
94.76127954,-67.29636000
94.80127954,-67.29636000
94.84127954,-67.29636000
94.88127954,-67.29636000
94.92127954,-67.29636000
94.96127954,-67.29636000
95.00127954,-66.40523000
95.04127954,-67.29636000
95.08127954,-66.40523000
95.12127954,-66.40523000
95.16127954,-66.40523000
95.20127954,-65.51408000
95.24127954,-64.62294000
95.28127954,-64.62294000
95.32127954,-64.62294000
95.36127954,-64.62294000
95.40127954,-64.62294000
95.44127954,-63.73180000
95.48127954,-63.73180000
95.52127954,-63.73180000
95.56127954,-63.73180000
95.60127954,-62.84066000
95.64127954,-62.84066000
95.68127954,-62.84066000
95.72127954,-61.94647000
95.76127954,-61.05533000
95.80127954,-61.05533000
95.84127953,-61.05533000
95.88127953,-60.16419000
95.92127953,-60.16419000
95.96127953,-57.49076000
96.00127953,-60.16419000
96.04127953,-60.16419000
96.08127953,-59.27305000
96.12127953,-58.38191000
96.16127953,-58.38191000
96.20127953,-57.49076000
96.24127953,-57.49076000
96.28127953,-57.49076000
96.32127953,-56.59963000
96.36127953,-56.59963000
96.40127953,-55.70544000
96.44127953,-55.70544000
96.48127953,-54.81429000
96.52127953,-53.92315000
96.56127953,-53.92315000
96.60127953,-53.92315000
96.64127953,-53.03201000
96.68127953,-53.03201000
96.72127953,-53.03201000
96.76127953,-52.14087000
96.80127953,-50.35554000
96.84127953,-50.35554000
96.88127953,-49.46440000
96.92127953,-49.46440000
96.96127953,-49.46440000
97.00127953,-48.57326000
97.04127953,-48.57326000
97.08127953,-47.68212000
97.12127953,-46.79098000
97.16127953,-46.79098000
97.20127953,-46.79098000
97.24127953,-45.89984000
97.28127953,-45.89984000
97.32127953,-45.00565000
97.36127953,-45.00565000
97.40127953,-43.22336000
97.44127953,-43.22336000
97.48127952,-43.22336000
97.52127952,-42.33222000
97.56127952,-41.44109000
97.60127952,-41.44109000
97.64127952,-40.54994000
97.68127952,-39.65880000
97.72127952,-38.76461000
97.76127952,-38.76461000
97.80127952,-38.76461000
97.84127952,-37.87347000
97.88127952,-36.98233000
97.92127952,-36.09119000
97.96127952,-35.20005000
98.00127952,-35.20005000
98.04127952,-34.30891000
98.08127952,-34.30891000
98.12127952,-32.52357000
98.16127952,-31.63244000
98.20127952,-31.63244000
98.24127952,-31.63244000
98.28127952,-30.74129000
98.32127952,-29.85015000
98.36127952,-28.95901000
98.40127952,-28.06787000
98.44127952,-28.06787000
98.48127952,-28.06787000
98.52127952,-27.17368000
98.56127952,-26.28254000
98.60127952,-25.39140000
98.64127952,-25.39140000
98.68127952,-24.50026000
98.72127952,-23.60912000
98.76127952,-23.60912000
98.80127952,-24.50026000
98.84127952,-20.93265000
98.88127952,-20.04151000
98.92127952,-20.93265000
98.96127952,-19.15036000
99.00127952,-19.15036000
99.04127952,-17.36808000
99.08127952,-16.47389000
99.12127951,-16.47389000
99.16127951,-16.47389000
99.20127951,-14.69161000
99.24127951,-14.69161000
99.28127951,-13.80047000
99.32127951,-12.90933000
99.36127951,-12.01819000
99.40127951,-12.01819000
99.44127951,-10.23286000
99.48127951,-10.23286000
99.52127951,-9.34171500
99.56127951,-9.34171500
99.60127951,-8.45057600
99.64127951,-6.66829400
99.68127951,-6.66829400
99.72127951,-6.66829400
99.76127951,-5.77715400
99.80127951,-3.99182100
99.84127951,-3.99182100
99.88127951,-3.10068000
99.92127951,-2.20954000
99.96127951,-2.20954000
100.00127951,-0.42725910
