Time,Channel B
(us),(mV)

-100.09801917,-6.98263500
-100.05801918,-5.21866500
-100.01801918,-3.45469500
-99.97801918,0.07324442
-99.93801918,1.83721400
-99.89801918,1.83721400
-99.85801918,5.36515400
-99.81801918,7.12912400
-99.77801918,8.89309300
-99.73801918,10.65706000
-99.69801918,14.18500000
-99.65801918,14.18500000
-99.61801918,15.94897000
-99.57801918,17.71294000
-99.53801918,21.24088000
-99.49801918,23.00485000
-99.45801918,23.00485000
-99.41801918,24.76882000
-99.37801918,26.53279000
-99.33801918,30.06684000
-99.29801918,30.06684000
-99.25801918,33.59477000
-99.21801918,35.35874000
-99.17801918,37.12271000
-99.13801918,37.12271000
-99.09801918,40.65065000
-99.05801918,42.41463000
-99.01801918,44.17860000
-98.97801918,45.94257000
-98.93801918,47.70654000
-98.89801918,49.47050000
-98.85801918,51.23447000
-98.81801918,52.99844000
-98.77801918,54.76241000
-98.73801918,56.52638000
-98.69801918,58.29646000
-98.65801918,60.06042000
-98.61801918,61.82440000
-98.57801918,63.58836000
-98.53801918,65.35233000
-98.49801918,65.35233000
-98.45801918,68.88028000
-98.41801918,70.64425000
-98.37801919,72.40822000
-98.33801919,72.40822000
-98.29801919,75.93616000
-98.25801919,77.70013000
-98.21801919,79.46410000
-98.17801919,79.46410000
-98.13801919,81.22807000
-98.09801919,82.99203000
-98.05801919,84.75600000
-98.01801919,86.52608000
-97.97801919,88.29005000
-97.93801919,90.05402000
-97.89801919,91.81799000
-97.85801919,93.58195000
-97.81801919,95.34592000
-97.77801919,95.34592000
-97.73801919,98.87386000
-97.69801919,100.63780000
-97.65801919,102.40180000
-97.61801919,104.16580000
-97.57801919,105.92970000
-97.53801919,107.69370000
-97.49801919,107.69370000
-97.45801919,109.45770000
-97.41801919,111.22170000
-97.37801919,112.98560000
-97.33801919,114.75570000
-97.29801919,114.75570000
-97.25801919,116.51970000
-97.21801919,118.28360000
-97.17801919,120.04760000
-97.13801919,121.81160000
-97.09801919,121.81160000
-97.05801919,123.57550000
-97.01801919,125.33950000
-96.97801919,127.10350000
-96.93801919,128.86740000
-96.89801919,128.86740000
-96.85801919,130.63140000
-96.81801919,132.39540000
-96.77801919,134.15940000
-96.73801920,135.92330000
-96.69801920,135.92330000
-96.65801920,135.92330000
-96.61801920,137.68730000
-96.57801920,139.45130000
-96.53801920,141.21520000
-96.49801920,142.98530000
-96.45801920,142.98530000
-96.41801920,142.98530000
-96.37801920,144.74930000
-96.33801920,146.51330000
-96.29801920,148.27720000
-96.25801920,148.27720000
-96.21801920,150.04120000
-96.17801920,150.04120000
-96.13801920,151.80520000
-96.09801920,151.80520000
-96.05801920,153.56910000
-96.01801920,155.33310000
-95.97801920,157.09710000
-95.93801920,157.09710000
-95.89801920,157.09710000
-95.85801920,158.86110000
-95.81801920,160.62500000
-95.77801920,162.38900000
-95.73801920,162.38900000
-95.69801920,162.38900000
-95.65801920,164.15300000
-95.61801920,164.15300000
-95.57801920,165.91690000
-95.53801920,165.91690000
-95.49801920,167.68090000
-95.45801920,167.68090000
-95.41801920,169.44490000
-95.37801920,169.44490000
-95.33801920,171.21490000
-95.29801920,171.21490000
-95.25801920,171.21490000
-95.21801920,171.21490000
-95.17801920,172.97890000
-95.13801920,172.97890000
-95.09801921,174.74290000
-95.05801921,174.74290000
-95.01801921,176.50690000
-94.97801921,176.50690000
-94.93801921,176.50690000
-94.89801921,178.27080000
-94.85801921,178.27080000
-94.81801921,178.27080000
-94.77801921,178.27080000
-94.73801921,178.27080000
-94.69801921,180.03480000
-94.65801921,180.03480000
-94.61801921,180.03480000
-94.57801921,180.03480000
-94.53801921,183.56270000
-94.49801921,180.03480000
-94.45801921,181.79880000
-94.41801921,183.56270000
-94.37801921,183.56270000
-94.33801921,183.56270000
-94.29801921,183.56270000
-94.25801921,183.56270000
-94.21801921,183.56270000
-94.17801921,185.32670000
-94.13801921,185.32670000
-94.09801921,185.32670000
-94.05801921,185.32670000
-94.01801921,185.32670000
-93.97801921,185.32670000
-93.93801921,185.32670000
-93.89801921,185.32670000
-93.85801921,185.32670000
-93.81801921,185.32670000
-93.77801921,185.32670000
-93.73801921,185.32670000
-93.69801921,185.32670000
-93.65801921,185.32670000
-93.61801921,185.32670000
-93.57801921,185.32670000
-93.53801921,185.32670000
-93.49801921,185.32670000
-93.45801922,185.32670000
-93.41801922,185.32670000
-93.37801922,185.32670000
-93.33801922,185.32670000
-93.29801922,185.32670000
-93.25801922,185.32670000
-93.21801922,183.56270000
-93.17801922,183.56270000
-93.13801922,183.56270000
-93.09801922,183.56270000
-93.05801922,183.56270000
-93.01801922,183.56270000
-92.97801922,183.56270000
-92.93801922,183.56270000
-92.89801922,181.79880000
-92.85801922,180.03480000
-92.81801922,180.03480000
-92.77801922,180.03480000
-92.73801922,178.27080000
-92.69801922,178.27080000
-92.65801922,178.27080000
-92.61801922,178.27080000
-92.57801922,178.27080000
-92.53801922,178.27080000
-92.49801922,176.50690000
-92.45801922,176.50690000
-92.41801922,174.74290000
-92.37801922,174.74290000
-92.33801922,174.74290000
-92.29801922,172.97890000
-92.25801922,172.97890000
-92.21801922,171.21490000
-92.17801922,171.21490000
-92.13801922,171.21490000
-92.09801922,169.44490000
-92.05801922,169.44490000
-92.01801922,169.44490000
-91.97801922,167.68090000
-91.93801922,165.91690000
-91.89801922,165.91690000
-91.85801922,165.91690000
-91.81801923,165.91690000
-91.77801923,162.38900000
-91.73801923,164.15300000
-91.69801923,162.38900000
-91.65801923,160.62500000
-91.61801923,158.86110000
-91.57801923,158.86110000
-91.53801923,157.09710000
-91.49801923,157.09710000
-91.45801923,155.33310000
-91.41801923,155.33310000
-91.37801923,153.56910000
-91.33801923,151.80520000
-91.29801923,151.80520000
-91.25801923,150.04120000
-91.21801923,150.04120000
-91.17801923,148.27720000
-91.13801923,148.27720000
-91.09801923,146.51330000
-91.05801923,144.74930000
-91.01801923,142.98530000
-90.97801923,142.98530000
-90.93801923,141.21520000
-90.89801923,141.21520000
-90.85801923,139.45130000
-90.81801923,137.68730000
-90.77801923,135.92330000
-90.73801923,135.92330000
-90.69801923,134.15940000
-90.65801923,134.15940000
-90.61801923,132.39540000
-90.57801923,130.63140000
-90.53801923,128.86740000
-90.49801923,128.86740000
-90.45801923,127.10350000
-90.41801923,123.57550000
-90.37801923,123.57550000
-90.33801923,121.81160000
-90.29801923,120.04760000
-90.25801923,120.04760000
-90.21801923,116.51970000
-90.17801924,116.51970000
-90.13801924,114.75570000
-90.09801924,114.75570000
-90.05801924,111.22170000
-90.01801924,109.45770000
-89.97801924,107.69370000
-89.93801924,107.69370000
-89.89801924,105.92970000
-89.85801924,105.92970000
-89.81801924,102.40180000
-89.77801924,100.63780000
-89.73801924,98.87386000
-89.69801924,98.87386000
-89.65801924,95.34592000
-89.61801924,93.58195000
-89.57801924,93.58195000
-89.53801924,91.81799000
-89.49801924,90.05402000
-89.45801924,88.29005000
-89.41801924,86.52608000
-89.37801924,84.75600000
-89.33801924,84.75600000
-89.29801924,81.22807000
-89.25801924,79.46410000
-89.21801924,79.46410000
-89.17801924,77.70013000
-89.13801924,74.17219000
-89.09801924,72.40822000
-89.05801924,72.40822000
-89.01801924,70.64425000
-88.97801924,67.11631000
-88.93801924,65.35233000
-88.89801924,65.35233000
-88.85801924,63.58836000
-88.81801924,60.06042000
-88.77801924,58.29646000
-88.73801924,58.29646000
-88.69801924,56.52638000
-88.65801924,52.99844000
-88.61801924,51.23447000
-88.57801924,51.23447000
-88.53801925,49.47050000
-88.49801925,45.94257000
-88.45801925,44.17860000
-88.41801925,44.17860000
-88.37801925,42.41463000
-88.33801925,38.88668000
-88.29801925,37.12271000
-88.25801925,35.35874000
-88.21801925,35.35874000
-88.17801925,31.83080000
-88.13801925,30.06684000
-88.09801925,28.29676000
-88.05801925,28.29676000
-88.01801925,24.76882000
-87.97801925,23.00485000
-87.93801925,21.24088000
-87.89801925,19.47691000
-87.85801925,15.94897000
-87.81801925,15.94897000
-87.77801925,14.18500000
-87.73801925,10.65706000
-87.69801925,8.89309300
-87.65801925,8.89309300
-87.61801925,7.12912400
-87.57801925,3.60118400
-87.53801925,1.83721400
-87.49801925,1.83721400
-87.45801925,0.07324442
-87.41801925,-3.45469500
-87.37801925,-5.21866500
-87.33801925,-6.98263500
-87.29801925,-8.74660500
-87.25801925,-12.27454000
-87.21801925,-12.27454000
-87.17801925,-14.03851000
-87.13801925,-17.56645000
-87.09801925,-19.33042000
-87.05801925,-19.33042000
-87.01801925,-21.09439000
-86.97801925,-24.62233000
-86.93801925,-26.39241000
-86.89801925,-26.39241000
-86.85801926,-28.15638000
-86.81801926,-31.68431000
-86.77801926,-33.44828000
-86.73801926,-35.21225000
-86.69801926,-35.21225000
-86.65801926,-38.74020000
-86.61801926,-40.50417000
-86.57801926,-42.26814000
-86.53801926,-42.26814000
-86.49801926,-45.79607000
-86.45801926,-47.56004000
-86.41801926,-49.32401000
-86.37801926,-51.08798000
-86.33801926,-52.85195000
-86.29801926,-54.62203000
-86.25801926,-56.38600000
-86.21801926,-58.14997000
-86.17801926,-59.91394000
-86.13801926,-61.67791000
-86.09801926,-63.44188000
-86.05801926,-65.20585000
-86.01801926,-66.96982000
-85.97801926,-68.73379000
-85.93801926,-70.49776000
-85.89801926,-72.26173000
-85.85801926,-74.02570000
-85.81801926,-75.78967000
-85.77801926,-77.55363000
-85.73801926,-79.31760000
-85.69801926,-81.08157000
-85.65801926,-82.85165000
-85.61801926,-84.61562000
-85.57801926,-84.61562000
-85.53801926,-88.14356000
-85.49801926,-89.90753000
-85.45801926,-89.90753000
-85.41801926,-91.67150000
-85.37801926,-93.43547000
-85.33801926,-96.96341000
-85.29801926,-96.96341000
-85.25801926,-98.72738000
-85.21801927,-98.72738000
-85.17801927,-102.25530000
-85.13801927,-104.01930000
-85.09801927,-105.78330000
-85.05801927,-105.78330000
-85.01801927,-109.31120000
-84.97801927,-109.31120000
-84.93801927,-111.08130000
-84.89801927,-112.84520000
-84.85801927,-114.60920000
-84.81801927,-116.37320000
-84.77801927,-118.13720000
-84.73801927,-118.13720000
-84.69801927,-119.90110000
-84.65801927,-119.90110000
-84.61801927,-123.42910000
-84.57801927,-125.19300000
-84.53801927,-126.95700000
-84.49801927,-126.95700000
-84.45801927,-128.72100000
-84.41801927,-130.48490000
-84.37801927,-132.24890000
-84.33801927,-132.24890000
-84.29801927,-134.01290000
-84.25801927,-134.01290000
-84.21801927,-137.54080000
-84.17801927,-137.54080000
-84.13801927,-139.31090000
-84.09801927,-139.31090000
-84.05801927,-141.07490000
-84.01801927,-141.07490000
-83.97801927,-144.60280000
-83.93801927,-146.36680000
-83.89801927,-146.36680000
-83.85801927,-146.36680000
-83.81801927,-148.13070000
-83.77801927,-148.13070000
-83.73801927,-149.89470000
-83.69801927,-151.65870000
-83.65801927,-153.42260000
-83.61801927,-153.42260000
-83.57801928,-155.18660000
-83.53801928,-155.18660000
-83.49801928,-156.95060000
-83.45801928,-158.71460000
-83.41801928,-158.71460000
-83.37801928,-160.47850000
-83.33801928,-160.47850000
-83.29801928,-160.47850000
-83.25801928,-162.24250000
-83.21801928,-162.24250000
-83.17801928,-164.00650000
-83.13801928,-165.77040000
-83.09801928,-165.77040000
-83.05801928,-167.54050000
-83.01801928,-167.54050000
-82.97801928,-167.54050000
-82.93801928,-169.30450000
-82.89801928,-169.30450000
-82.85801928,-171.06850000
-82.81801928,-172.83240000
-82.77801928,-172.83240000
-82.73801928,-172.83240000
-82.69801928,-174.59640000
-82.65801928,-174.59640000
-82.61801928,-174.59640000
-82.57801928,-174.59640000
-82.53801928,-176.36040000
-82.49801928,-176.36040000
-82.45801928,-176.36040000
-82.41801928,-178.12430000
-82.37801928,-178.12430000
-82.33801928,-179.88830000
-82.29801928,-179.88830000
-82.25801928,-181.65230000
-82.21801928,-181.65230000
-82.17801928,-181.65230000
-82.13801928,-181.65230000
-82.09801928,-181.65230000
-82.05801928,-183.41620000
-82.01801928,-183.41620000
-81.97801928,-183.41620000
-81.93801929,-183.41620000
-81.89801929,-183.41620000
-81.85801929,-183.41620000
-81.81801929,-183.41620000
-81.77801929,-183.41620000
-81.73801929,-185.18020000
-81.69801929,-185.18020000
-81.65801929,-185.18020000
-81.61801929,-186.94420000
-81.57801929,-185.18020000
-81.53801929,-185.18020000
-81.49801929,-186.94420000
-81.45801929,-186.94420000
-81.41801929,-186.94420000
-81.37801929,-186.94420000
-81.33801929,-186.94420000
-81.29801929,-186.94420000
-81.25801929,-186.94420000
-81.21801929,-186.94420000
-81.17801929,-186.94420000
-81.13801929,-186.94420000
-81.09801929,-186.94420000
-81.05801929,-186.94420000
-81.01801929,-186.94420000
-80.97801929,-186.94420000
-80.93801929,-186.94420000
-80.89801929,-186.94420000
-80.85801929,-185.18020000
-80.81801929,-185.18020000
-80.77801929,-186.94420000
-80.73801929,-185.18020000
-80.69801929,-183.41620000
-80.65801929,-183.41620000
-80.61801929,-183.41620000
-80.57801929,-183.41620000
-80.53801929,-183.41620000
-80.49801929,-183.41620000
-80.45801929,-183.41620000
-80.41801929,-181.65230000
-80.37801929,-181.65230000
-80.33801929,-181.65230000
-80.29801930,-181.65230000
-80.25801930,-181.65230000
-80.21801930,-179.88830000
-80.17801930,-179.88830000
-80.13801930,-179.88830000
-80.09801930,-179.88830000
-80.05801930,-178.12430000
-80.01801930,-176.36040000
-79.97801930,-176.36040000
-79.93801930,-176.36040000
-79.89801930,-176.36040000
-79.85801930,-174.59640000
-79.81801930,-174.59640000
-79.77801930,-174.59640000
-79.73801930,-174.59640000
-79.69801930,-174.59640000
-79.65801930,-172.83240000
-79.61801930,-171.06850000
-79.57801930,-171.06850000
-79.53801930,-169.30450000
-79.49801930,-167.54050000
-79.45801930,-167.54050000
-79.41801930,-167.54050000
-79.37801930,-167.54050000
-79.33801930,-165.77040000
-79.29801930,-165.77040000
-79.25801930,-164.00650000
-79.21801930,-162.24250000
-79.17801930,-162.24250000
-79.13801930,-160.47850000
-79.09801930,-160.47850000
-79.05801930,-160.47850000
-79.01801930,-158.71460000
-78.97801930,-156.95060000
-78.93801930,-155.18660000
-78.89801930,-155.18660000
-78.85801930,-153.42260000
-78.81801930,-153.42260000
-78.77801930,-153.42260000
-78.73801930,-151.65870000
-78.69801930,-149.89470000
-78.65801931,-148.13070000
-78.61801931,-148.13070000
-78.57801931,-146.36680000
-78.53801931,-146.36680000
-78.49801931,-144.60280000
-78.45801931,-144.60280000
-78.41801931,-142.83880000
-78.37801931,-141.07490000
-78.33801931,-139.31090000
-78.29801931,-139.31090000
-78.25801931,-137.54080000
-78.21801931,-135.77680000
-78.17801931,-135.77680000
-78.13801931,-134.01290000
-78.09801931,-132.24890000
-78.05801931,-130.48490000
-78.01801931,-130.48490000
-77.97801931,-126.95700000
-77.93801931,-126.95700000
-77.89801931,-125.19300000
-77.85801931,-125.19300000
-77.81801931,-121.66510000
-77.77801931,-119.90110000
-77.73801931,-118.13720000
-77.69801931,-118.13720000
-77.65801931,-116.37320000
-77.61801931,-114.60920000
-77.57801931,-112.84520000
-77.53801931,-112.84520000
-77.49801931,-111.08130000
-77.45801931,-109.31120000
-77.41801931,-107.54720000
-77.37801931,-105.78330000
-77.33801931,-104.01930000
-77.29801931,-104.01930000
-77.25801931,-102.25530000
-77.21801931,-98.72738000
-77.17801931,-98.72738000
-77.13801931,-96.96341000
-77.09801931,-95.19944000
-77.05801931,-93.43547000
-77.01801932,-91.67150000
-76.97801932,-89.90753000
-76.93801932,-88.14356000
-76.89801932,-88.14356000
-76.85801932,-84.61562000
-76.81801932,-82.85165000
-76.77801932,-82.85165000
-76.73801932,-81.08157000
-76.69801932,-77.55363000
-76.65801932,-75.78967000
-76.61801932,-75.78967000
-76.57801932,-74.02570000
-76.53801932,-72.26173000
-76.49801932,-70.49776000
-76.45801932,-68.73379000
-76.41801932,-66.96982000
-76.37801932,-65.20585000
-76.33801932,-63.44188000
-76.29801932,-61.67791000
-76.25801932,-59.91394000
-76.21801932,-56.38600000
-76.17801932,-56.38600000
-76.13801932,-54.62203000
-76.09801932,-52.85195000
-76.05801932,-49.32401000
-76.01801932,-49.32401000
-75.97801932,-47.56004000
-75.93801932,-45.79607000
-75.89801932,-42.26814000
-75.85801932,-40.50417000
-75.81801932,-40.50417000
-75.77801932,-36.97623000
-75.73801932,-35.21225000
-75.69801932,-33.44828000
-75.65801932,-33.44828000
-75.61801932,-29.92035000
-75.57801932,-28.15638000
-75.53801932,-26.39241000
-75.49801932,-26.39241000
-75.45801932,-22.85836000
-75.41801932,-21.09439000
-75.37801933,-19.33042000
-75.33801933,-19.33042000
-75.29801933,-15.80248000
-75.25801933,-14.03851000
-75.21801933,-12.27454000
-75.17801933,-8.74660500
-75.13801933,-6.98263500
-75.09801933,-5.21866500
-75.05801933,-5.21866500
-75.01801933,-3.45469500
-74.97801933,0.07324442
-74.93801933,1.83721400
-74.89801933,1.83721400
-74.85801933,3.60118400
-74.81801933,7.12912400
-74.77801933,8.89309300
-74.73801933,8.89309300
-74.69801933,12.42103000
-74.65801933,14.18500000
-74.61801933,15.94897000
-74.57801933,17.71294000
-74.53801933,21.24088000
-74.49801933,23.00485000
-74.45801933,23.00485000
-74.41801933,24.76882000
-74.37801933,28.29676000
-74.33801933,30.06684000
-74.29801933,30.06684000
-74.25801933,33.59477000
-74.21801933,35.35874000
-74.17801933,37.12271000
-74.13801933,37.12271000
-74.09801933,38.88668000
-74.05801933,42.41463000
-74.01801933,44.17860000
-73.97801933,44.17860000
-73.93801933,47.70654000
-73.89801933,49.47050000
-73.85801933,51.23447000
-73.81801933,52.99844000
-73.77801933,54.76241000
-73.73801933,56.52638000
-73.69801934,58.29646000
-73.65801934,60.06042000
-73.61801934,61.82440000
-73.57801934,63.58836000
-73.53801934,65.35233000
-73.49801934,67.11631000
-73.45801934,67.11631000
-73.41801934,70.64425000
-73.37801934,72.40822000
-73.33801934,72.40822000
-73.29801934,77.70013000
-73.25801934,77.70013000
-73.21801934,79.46410000
-73.17801934,79.46410000
-73.13801934,82.99203000
-73.09801934,84.75600000
-73.05801934,86.52608000
-73.01801934,86.52608000
-72.97801934,88.29005000
-72.93801934,90.05402000
-72.89801934,91.81799000
-72.85801934,93.58195000
-72.81801934,95.34592000
-72.77801934,95.34592000
-72.73801934,98.87386000
-72.69801934,100.63780000
-72.65801934,100.63780000
-72.61801934,102.40180000
-72.57801934,105.92970000
-72.53801934,107.69370000
-72.49801934,107.69370000
-72.45801934,109.45770000
-72.41801934,109.45770000
-72.37801934,112.98560000
-72.33801934,114.75570000
-72.29801934,114.75570000
-72.25801934,116.51970000
-72.21801934,118.28360000
-72.17801934,120.04760000
-72.13801934,120.04760000
-72.09801934,121.81160000
-72.05801935,123.57550000
-72.01801935,125.33950000
-71.97801935,127.10350000
-71.93801935,128.86740000
-71.89801935,128.86740000
-71.85801935,130.63140000
-71.81801935,132.39540000
-71.77801935,134.15940000
-71.73801935,134.15940000
-71.69801935,135.92330000
-71.65801935,135.92330000
-71.61801935,139.45130000
-71.57801935,139.45130000
-71.53801935,141.21520000
-71.49801935,142.98530000
-71.45801935,142.98530000
-71.41801935,144.74930000
-71.37801935,144.74930000
-71.33801935,146.51330000
-71.29801935,148.27720000
-71.25801935,148.27720000
-71.21801935,150.04120000
-71.17801935,150.04120000
-71.13801935,151.80520000
-71.09801935,153.56910000
-71.05801935,155.33310000
-71.01801935,155.33310000
-70.97801935,157.09710000
-70.93801935,157.09710000
-70.89801935,157.09710000
-70.85801935,158.86110000
-70.81801935,160.62500000
-70.77801935,162.38900000
-70.73801935,162.38900000
-70.69801935,162.38900000
-70.65801935,164.15300000
-70.61801935,164.15300000
-70.57801935,165.91690000
-70.53801935,165.91690000
-70.49801935,165.91690000
-70.45801935,167.68090000
-70.41801936,169.44490000
-70.37801936,169.44490000
-70.33801936,169.44490000
-70.29801936,171.21490000
-70.25801936,171.21490000
-70.21801936,171.21490000
-70.17801936,171.21490000
-70.13801936,172.97890000
-70.09801936,172.97890000
-70.05801936,176.50690000
-70.01801936,176.50690000
-69.97801936,176.50690000
-69.93801936,176.50690000
-69.89801936,176.50690000
-69.85801936,178.27080000
-69.81801936,178.27080000
-69.77801936,178.27080000
-69.73801936,178.27080000
-69.69801936,178.27080000
-69.65801936,180.03480000
-69.61801936,180.03480000
-69.57801936,180.03480000
-69.53801936,181.79880000
-69.49801936,180.03480000
-69.45801936,183.56270000
-69.41801936,183.56270000
-69.37801936,183.56270000
-69.33801936,183.56270000
-69.29801936,183.56270000
-69.25801936,183.56270000
-69.21801936,183.56270000
-69.17801936,183.56270000
-69.13801936,185.32670000
-69.09801936,185.32670000
-69.05801936,185.32670000
-69.01801936,185.32670000
-68.97801936,185.32670000
-68.93801936,185.32670000
-68.89801936,185.32670000
-68.85801936,185.32670000
-68.81801936,185.32670000
-68.77801937,185.32670000
-68.73801937,185.32670000
-68.69801937,185.32670000
-68.65801937,185.32670000
-68.61801937,185.32670000
-68.57801937,185.32670000
-68.53801937,185.32670000
-68.49801937,185.32670000
-68.45801937,185.32670000
-68.41801937,185.32670000
-68.37801937,185.32670000
-68.33801937,185.32670000
-68.29801937,183.56270000
-68.25801937,185.32670000
-68.21801937,183.56270000
-68.17801937,185.32670000
-68.13801937,183.56270000
-68.09801937,183.56270000
-68.05801937,183.56270000
-68.01801937,181.79880000
-67.97801937,183.56270000
-67.93801937,181.79880000
-67.89801937,180.03480000
-67.85801937,180.03480000
-67.81801937,180.03480000
-67.77801937,180.03480000
-67.73801937,178.27080000
-67.69801937,178.27080000
-67.65801937,178.27080000
-67.61801937,178.27080000
-67.57801937,178.27080000
-67.53801937,178.27080000
-67.49801937,176.50690000
-67.45801937,176.50690000
-67.41801937,176.50690000
-67.37801937,174.74290000
-67.33801937,172.97890000
-67.29801937,172.97890000
-67.25801937,172.97890000
-67.21801937,171.21490000
-67.17801937,171.21490000
-67.13801938,171.21490000
-67.09801938,171.21490000
-67.05801938,169.44490000
-67.01801938,169.44490000
-66.97801938,167.68090000
-66.93801938,165.91690000
-66.89801938,165.91690000
-66.85801938,164.15300000
-66.81801938,164.15300000
-66.77801938,164.15300000
-66.73801938,162.38900000
-66.69801938,162.38900000
-66.65801938,160.62500000
-66.61801938,158.86110000
-66.57801938,157.09710000
-66.53801938,157.09710000
-66.49801938,157.09710000
-66.45801938,155.33310000
-66.41801938,155.33310000
-66.37801938,153.56910000
-66.33801938,151.80520000
-66.29801938,150.04120000
-66.25801938,150.04120000
-66.21801938,150.04120000
-66.17801938,148.27720000
-66.13801938,148.27720000
-66.09801938,146.51330000
-66.05801938,144.74930000
-66.01801938,142.98530000
-65.97801938,142.98530000
-65.93801938,142.98530000
-65.89801938,141.21520000
-65.85801938,137.68730000
-65.81801938,137.68730000
-65.77801938,135.92330000
-65.73801938,135.92330000
-65.69801938,134.15940000
-65.65801938,132.39540000
-65.61801938,130.63140000
-65.57801938,130.63140000
-65.53801938,128.86740000
-65.49801939,127.10350000
-65.45801939,127.10350000
-65.41801939,123.57550000
-65.37801939,123.57550000
-65.33801939,121.81160000
-65.29801939,120.04760000
-65.25801939,120.04760000
-65.21801939,116.51970000
-65.17801939,114.75570000
-65.13801939,114.75570000
-65.09801939,112.98560000
-65.05801939,112.98560000
-65.01801939,109.45770000
-64.97801939,109.45770000
-64.93801939,105.92970000
-64.89801939,105.92970000
-64.85801939,105.92970000
-64.81801939,102.40180000
-64.77801939,100.63780000
-64.73801939,98.87386000
-64.69801939,98.87386000
-64.65801939,95.34592000
-64.61801939,93.58195000
-64.57801939,93.58195000
-64.53801939,91.81799000
-64.49801939,90.05402000
-64.45801939,86.52608000
-64.41801939,86.52608000
-64.37801939,84.75600000
-64.33801939,82.99203000
-64.29801939,81.22807000
-64.25801939,79.46410000
-64.21801939,79.46410000
-64.17801939,77.70013000
-64.13801939,74.17219000
-64.09801939,72.40822000
-64.05801939,72.40822000
-64.01801939,70.64425000
-63.97801939,67.11631000
-63.93801939,65.35233000
-63.89801939,63.58836000
-63.85801940,63.58836000
-63.81801940,61.82440000
-63.77801940,58.29646000
-63.73801940,58.29646000
-63.69801940,56.52638000
-63.65801940,52.99844000
-63.61801940,51.23447000
-63.57801940,51.23447000
-63.53801940,49.47050000
-63.49801940,45.94257000
-63.45801940,44.17860000
-63.41801940,44.17860000
-63.37801940,40.65065000
-63.33801940,38.88668000
-63.29801940,37.12271000
-63.25801940,37.12271000
-63.21801940,35.35874000
-63.17801940,31.83080000
-63.13801940,30.06684000
-63.09801940,28.29676000
-63.05801940,26.53279000
-63.01801940,24.76882000
-62.97801940,23.00485000
-62.93801940,21.24088000
-62.89801940,19.47691000
-62.85801940,17.71294000
-62.81801940,15.94897000
-62.77801940,14.18500000
-62.73801940,10.65706000
-62.69801940,8.89309300
-62.65801940,8.89309300
-62.61801940,7.12912400
-62.57801940,3.60118400
-62.53801940,1.83721400
-62.49801940,1.83721400
-62.45801940,0.07324442
-62.41801940,-3.45469500
-62.37801940,-5.21866500
-62.33801940,-6.98263500
-62.29801940,-8.74660500
-62.25801940,-12.27454000
-62.21801940,-12.27454000
-62.17801941,-14.03851000
-62.13801941,-17.56645000
-62.09801941,-19.33042000
-62.05801941,-19.33042000
-62.01801941,-21.09439000
-61.97801941,-24.62233000
-61.93801941,-26.39241000
-61.89801941,-28.15638000
-61.85801941,-28.15638000
-61.81801941,-31.68431000
-61.77801941,-33.44828000
-61.73801941,-35.21225000
-61.69801941,-36.97623000
-61.65801941,-38.74020000
-61.61801941,-40.50417000
-61.57801941,-42.26814000
-61.53801941,-44.03210000
-61.49801941,-45.79607000
-61.45801941,-47.56004000
-61.41801941,-49.32401000
-61.37801941,-51.08798000
-61.33801941,-52.85195000
-61.29801941,-54.62203000
-61.25801941,-56.38600000
-61.21801941,-59.91394000
-61.17801941,-59.91394000
-61.13801941,-61.67791000
-61.09801941,-63.44188000
-61.05801941,-65.20585000
-61.01801941,-68.73379000
-60.97801941,-68.73379000
-60.93801941,-70.49776000
-60.89801941,-74.02570000
-60.85801941,-75.78967000
-60.81801941,-75.78967000
-60.77801941,-75.78967000
-60.73801941,-79.31760000
-60.69801941,-81.08157000
-60.65801941,-82.85165000
-60.61801941,-84.61562000
-60.57801941,-86.37959000
-60.53801942,-88.14356000
-60.49801942,-89.90753000
-60.45801942,-91.67150000
-60.41801942,-91.67150000
-60.37801942,-95.19944000
-60.33801942,-96.96341000
-60.29801942,-96.96341000
-60.25801942,-98.72738000
-60.21801942,-100.49130000
-60.17801942,-102.25530000
-60.13801942,-104.01930000
-60.09801942,-105.78330000
-60.05801942,-105.78330000
-60.01801942,-109.31120000
-59.97801942,-111.08130000
-59.93801942,-111.08130000
-59.89801942,-112.84520000
-59.85801942,-112.84520000
-59.81801942,-114.60920000
-59.77801942,-118.13720000
-59.73801942,-118.13720000
-59.69801942,-119.90110000
-59.65801942,-121.66510000
-59.61801942,-123.42910000
-59.57801942,-125.19300000
-59.53801942,-125.19300000
-59.49801942,-126.95700000
-59.45801942,-128.72100000
-59.41801942,-130.48490000
-59.37801942,-132.24890000
-59.33801942,-132.24890000
-59.29801942,-134.01290000
-59.25801942,-134.01290000
-59.21801942,-137.54080000
-59.17801942,-137.54080000
-59.13801942,-139.31090000
-59.09801942,-139.31090000
-59.05801942,-141.07490000
-59.01801942,-142.83880000
-58.97801942,-144.60280000
-58.93801942,-144.60280000
-58.89801943,-146.36680000
-58.85801943,-146.36680000
-58.81801943,-148.13070000
-58.77801943,-149.89470000
-58.73801943,-151.65870000
-58.69801943,-153.42260000
-58.65801943,-153.42260000
-58.61801943,-153.42260000
-58.57801943,-153.42260000
-58.53801943,-155.18660000
-58.49801943,-156.95060000
-58.45801943,-158.71460000
-58.41801943,-158.71460000
-58.37801943,-160.47850000
-58.33801943,-160.47850000
-58.29801943,-162.24250000
-58.25801943,-162.24250000
-58.21801943,-164.00650000
-58.17801943,-165.77040000
-58.13801943,-165.77040000
-58.09801943,-167.54050000
-58.05801943,-167.54050000
-58.01801943,-167.54050000
-57.97801943,-169.30450000
-57.93801943,-169.30450000
-57.89801943,-169.30450000
-57.85801943,-171.06850000
-57.81801943,-172.83240000
-57.77801943,-172.83240000
-57.73801943,-174.59640000
-57.69801943,-174.59640000
-57.65801943,-174.59640000
-57.61801943,-174.59640000
-57.57801943,-174.59640000
-57.53801943,-176.36040000
-57.49801943,-176.36040000
-57.45801943,-176.36040000
-57.41801943,-179.88830000
-57.37801943,-179.88830000
-57.33801943,-179.88830000
-57.29801943,-179.88830000
-57.25801944,-179.88830000
-57.21801944,-181.65230000
-57.17801944,-181.65230000
-57.13801944,-181.65230000
-57.09801944,-181.65230000
-57.05801944,-181.65230000
-57.01801944,-181.65230000
-56.97801944,-183.41620000
-56.93801944,-183.41620000
-56.89801944,-183.41620000
-56.85801944,-183.41620000
-56.81801944,-183.41620000
-56.77801944,-183.41620000
-56.73801944,-183.41620000
-56.69801944,-183.41620000
-56.65801944,-185.18020000
-56.61801944,-185.18020000
-56.57801944,-185.18020000
-56.53801944,-186.94420000
-56.49801944,-186.94420000
-56.45801944,-186.94420000
-56.41801944,-186.94420000
-56.37801944,-186.94420000
-56.33801944,-186.94420000
-56.29801944,-186.94420000
-56.25801944,-186.94420000
-56.21801944,-186.94420000
-56.17801944,-186.94420000
-56.13801944,-186.94420000
-56.09801944,-186.94420000
-56.05801944,-186.94420000
-56.01801944,-186.94420000
-55.97801944,-186.94420000
-55.93801944,-186.94420000
-55.89801944,-185.18020000
-55.85801944,-186.94420000
-55.81801944,-185.18020000
-55.77801944,-185.18020000
-55.73801944,-183.41620000
-55.69801944,-183.41620000
-55.65801944,-183.41620000
-55.61801945,-183.41620000
-55.57801945,-183.41620000
-55.53801945,-183.41620000
-55.49801945,-183.41620000
-55.45801945,-181.65230000
-55.41801945,-183.41620000
-55.37801945,-181.65230000
-55.33801945,-181.65230000
-55.29801945,-183.41620000
-55.25801945,-181.65230000
-55.21801945,-181.65230000
-55.17801945,-179.88830000
-55.13801945,-179.88830000
-55.09801945,-178.12430000
-55.05801945,-178.12430000
-55.01801945,-178.12430000
-54.97801945,-176.36040000
-54.93801945,-176.36040000
-54.89801945,-174.59640000
-54.85801945,-174.59640000
-54.81801945,-174.59640000
-54.77801945,-174.59640000
-54.73801945,-174.59640000
-54.69801945,-172.83240000
-54.65801945,-172.83240000
-54.61801945,-172.83240000
-54.57801945,-169.30450000
-54.53801945,-169.30450000
-54.49801945,-169.30450000
-54.45801945,-167.54050000
-54.41801945,-167.54050000
-54.37801945,-167.54050000
-54.33801945,-167.54050000
-54.29801945,-165.77040000
-54.25801945,-164.00650000
-54.21801945,-162.24250000
-54.17801945,-162.24250000
-54.13801945,-162.24250000
-54.09801945,-160.47850000
-54.05801945,-160.47850000
-54.01801945,-158.71460000
-53.97801946,-158.71460000
-53.93801946,-155.18660000
-53.89801946,-155.18660000
-53.85801946,-153.42260000
-53.81801946,-153.42260000
-53.77801946,-153.42260000
-53.73801946,-151.65870000
-53.69801946,-149.89470000
-53.65801946,-148.13070000
-53.61801946,-148.13070000
-53.57801946,-146.36680000
-53.53801946,-146.36680000
-53.49801946,-144.60280000
-53.45801946,-142.83880000
-53.41801946,-141.07490000
-53.37801946,-139.31090000
-53.33801946,-139.31090000
-53.29801946,-139.31090000
-53.25801946,-137.54080000
-53.21801946,-135.77680000
-53.17801946,-134.01290000
-53.13801946,-134.01290000
-53.09801946,-132.24890000
-53.05801946,-130.48490000
-53.01801946,-130.48490000
-52.97801946,-126.95700000
-52.93801946,-126.95700000
-52.89801946,-125.19300000
-52.85801946,-123.42910000
-52.81801946,-123.42910000
-52.77801946,-119.90110000
-52.73801946,-118.13720000
-52.69801946,-118.13720000
-52.65801946,-118.13720000
-52.61801946,-116.37320000
-52.57801946,-112.84520000
-52.53801946,-111.08130000
-52.49801946,-111.08130000
-52.45801946,-109.31120000
-52.41801946,-107.54720000
-52.37801946,-105.78330000
-52.33801947,-104.01930000
-52.29801947,-102.25530000
-52.25801947,-102.25530000
-52.21801947,-98.72738000
-52.17801947,-96.96341000
-52.13801947,-96.96341000
-52.09801947,-95.19944000
-52.05801947,-93.43547000
-52.01801947,-91.67150000
-51.97801947,-89.90753000
-51.93801947,-88.14356000
-51.89801947,-86.37959000
-51.85801947,-84.61562000
-51.81801947,-82.85165000
-51.77801947,-82.85165000
-51.73801947,-81.08157000
-51.69801947,-79.31760000
-51.65801947,-77.55363000
-51.61801947,-75.78967000
-51.57801947,-74.02570000
-51.53801947,-72.26173000
-51.49801947,-70.49776000
-51.45801947,-68.73379000
-51.41801947,-66.96982000
-51.37801947,-65.20585000
-51.33801947,-63.44188000
-51.29801947,-61.67791000
-51.25801947,-59.91394000
-51.21801947,-58.14997000
-51.17801947,-56.38600000
-51.13801947,-54.62203000
-51.09801947,-52.85195000
-51.05801947,-49.32401000
-51.01801947,-49.32401000
-50.97801947,-47.56004000
-50.93801947,-45.79607000
-50.89801947,-42.26814000
-50.85801947,-40.50417000
-50.81801947,-40.50417000
-50.77801947,-36.97623000
-50.73801947,-35.21225000
-50.69801947,-33.44828000
-50.65801948,-33.44828000
-50.61801948,-31.68431000
-50.57801948,-28.15638000
-50.53801948,-26.39241000
-50.49801948,-24.62233000
-50.45801948,-22.85836000
-50.41801948,-21.09439000
-50.37801948,-19.33042000
-50.33801948,-17.56645000
-50.29801948,-15.80248000
-50.25801948,-14.03851000
-50.21801948,-12.27454000
-50.17801948,-10.51057000
-50.13801948,-6.98263500
-50.09801948,-5.21866500
-50.05801948,-5.21866500
-50.01801948,-3.45469500
-49.97801948,0.07324442
-49.93801948,1.83721400
-49.89801948,1.83721400
-49.85801948,3.60118400
-49.81801948,7.12912400
-49.77801948,8.89309300
-49.73801948,10.65706000
-49.69801948,12.42103000
-49.65801948,14.18500000
-49.61801948,15.94897000
-49.57801948,17.71294000
-49.53801948,21.24088000
-49.49801948,23.00485000
-49.45801948,23.00485000
-49.41801948,24.76882000
-49.37801948,28.29676000
-49.33801948,30.06684000
-49.29801948,31.83080000
-49.25801948,31.83080000
-49.21801948,35.35874000
-49.17801948,37.12271000
-49.13801948,38.88668000
-49.09801948,38.88668000
-49.05801948,42.41463000
-49.01801949,44.17860000
-48.97801949,45.94257000
-48.93801949,47.70654000
-48.89801949,49.47050000
-48.85801949,51.23447000
-48.81801949,51.23447000
-48.77801949,54.76241000
-48.73801949,56.52638000
-48.69801949,58.29646000
-48.65801949,60.06042000
-48.61801949,61.82440000
-48.57801949,63.58836000
-48.53801949,65.35233000
-48.49801949,67.11631000
-48.45801949,67.11631000
-48.41801949,70.64425000
-48.37801949,72.40822000
-48.33801949,72.40822000
-48.29801949,75.93616000
-48.25801949,77.70013000
-48.21801949,79.46410000
-48.17801949,81.22807000
-48.13801949,81.22807000
-48.09801949,84.75600000
-48.05801949,86.52608000
-48.01801949,86.52608000
-47.97801949,88.29005000
-47.93801949,91.81799000
-47.89801949,91.81799000
-47.85801949,93.58195000
-47.81801949,95.34592000
-47.77801949,97.10989000
-47.73801949,98.87386000
-47.69801949,100.63780000
-47.65801949,102.40180000
-47.61801949,104.16580000
-47.57801949,105.92970000
-47.53801949,107.69370000
-47.49801949,107.69370000
-47.45801949,109.45770000
-47.41801949,109.45770000
-47.37801950,112.98560000
-47.33801950,114.75570000
-47.29801950,114.75570000
-47.25801950,116.51970000
-47.21801950,118.28360000
-47.17801950,118.28360000
-47.13801950,121.81160000
-47.09801950,121.81160000
-47.05801950,121.81160000
-47.01801950,125.33950000
-46.97801950,127.10350000
-46.93801950,127.10350000
-46.89801950,128.86740000
-46.85801950,130.63140000
-46.81801950,130.63140000
-46.77801950,134.15940000
-46.73801950,134.15940000
-46.69801950,135.92330000
-46.65801950,137.68730000
-46.61801950,137.68730000
-46.57801950,139.45130000
-46.53801950,141.21520000
-46.49801950,141.21520000
-46.45801950,142.98530000
-46.41801950,144.74930000
-46.37801950,144.74930000
-46.33801950,146.51330000
-46.29801950,148.27720000
-46.25801950,148.27720000
-46.21801950,150.04120000
-46.17801950,150.04120000
-46.13801950,151.80520000
-46.09801950,151.80520000
-46.05801950,155.33310000
-46.01801950,155.33310000
-45.97801950,157.09710000
-45.93801950,157.09710000
-45.89801950,157.09710000
-45.85801950,158.86110000
-45.81801950,160.62500000
-45.77801950,162.38900000
-45.73801951,162.38900000
-45.69801951,162.38900000
-45.65801951,164.15300000
-45.61801951,164.15300000
-45.57801951,165.91690000
-45.53801951,165.91690000
-45.49801951,165.91690000
-45.45801951,165.91690000
-45.41801951,169.44490000
-45.37801951,169.44490000
-45.33801951,169.44490000
-45.29801951,171.21490000
-45.25801951,171.21490000
-45.21801951,172.97890000
-45.17801951,172.97890000
-45.13801951,172.97890000
-45.09801951,174.74290000
-45.05801951,174.74290000
-45.01801951,174.74290000
-44.97801951,176.50690000
-44.93801951,176.50690000
-44.89801951,176.50690000
-44.85801951,176.50690000
-44.81801951,178.27080000
-44.77801951,178.27080000
-44.73801951,178.27080000
-44.69801951,178.27080000
-44.65801951,178.27080000
-44.61801951,180.03480000
-44.57801951,180.03480000
-44.53801951,181.79880000
-44.49801951,181.79880000
-44.45801951,181.79880000
-44.41801951,183.56270000
-44.37801951,183.56270000
-44.33801951,183.56270000
-44.29801951,183.56270000
-44.25801951,183.56270000
-44.21801951,183.56270000
-44.17801951,185.32670000
-44.13801951,185.32670000
-44.09801952,185.32670000
-44.05801952,185.32670000
-44.01801952,185.32670000
-43.97801952,185.32670000
-43.93801952,185.32670000
-43.89801952,185.32670000
-43.85801952,185.32670000
-43.81801952,185.32670000
-43.77801952,185.32670000
-43.73801952,185.32670000
-43.69801952,185.32670000
-43.65801952,185.32670000
-43.61801952,185.32670000
-43.57801952,185.32670000
-43.53801952,185.32670000
-43.49801952,185.32670000
-43.45801952,185.32670000
-43.41801952,185.32670000
-43.37801952,185.32670000
-43.33801952,185.32670000
-43.29801952,183.56270000
-43.25801952,183.56270000
-43.21801952,185.32670000
-43.17801952,183.56270000
-43.13801952,183.56270000
-43.09801952,181.79880000
-43.05801952,183.56270000
-43.01801952,183.56270000
-42.97801952,183.56270000
-42.93801952,183.56270000
-42.89801952,180.03480000
-42.85801952,180.03480000
-42.81801952,180.03480000
-42.77801952,180.03480000
-42.73801952,180.03480000
-42.69801952,178.27080000
-42.65801952,178.27080000
-42.61801952,178.27080000
-42.57801952,178.27080000
-42.53801952,176.50690000
-42.49801952,176.50690000
-42.45801953,176.50690000
-42.41801953,176.50690000
-42.37801953,174.74290000
-42.33801953,172.97890000
-42.29801953,172.97890000
-42.25801953,171.21490000
-42.21801953,171.21490000
-42.17801953,171.21490000
-42.13801953,171.21490000
-42.09801953,169.44490000
-42.05801953,169.44490000
-42.01801953,169.44490000
-41.97801953,167.68090000
-41.93801953,167.68090000
-41.89801953,165.91690000
-41.85801953,164.15300000
-41.81801953,164.15300000
-41.77801953,164.15300000
-41.73801953,162.38900000
-41.69801953,160.62500000
-41.65801953,160.62500000
-41.61801953,160.62500000
-41.57801953,157.09710000
-41.53801953,157.09710000
-41.49801953,157.09710000
-41.45801953,155.33310000
-41.41801953,155.33310000
-41.37801953,153.56910000
-41.33801953,151.80520000
-41.29801953,151.80520000
-41.25801953,150.04120000
-41.21801953,148.27720000
-41.17801953,148.27720000
-41.13801953,148.27720000
-41.09801953,144.74930000
-41.05801953,144.74930000
-41.01801953,142.98530000
-40.97801953,142.98530000
-40.93801953,141.21520000
-40.89801953,139.45130000
-40.85801953,139.45130000
-40.81801954,137.68730000
-40.77801954,135.92330000
-40.73801954,135.92330000
-40.69801954,134.15940000
-40.65801954,134.15940000
-40.61801954,130.63140000
-40.57801954,130.63140000
-40.53801954,128.86740000
-40.49801954,128.86740000
-40.45801954,123.57550000
-40.41801954,123.57550000
-40.37801954,123.57550000
-40.33801954,121.81160000
-40.29801954,120.04760000
-40.25801954,118.28360000
-40.21801954,116.51970000
-40.17801954,116.51970000
-40.13801954,114.75570000
-40.09801954,112.98560000
-40.05801954,112.98560000
-40.01801954,109.45770000
-39.97801954,107.69370000
-39.93801954,107.69370000
-39.89801954,105.92970000
-39.85801954,104.16580000
-39.81801954,100.63780000
-39.77801954,100.63780000
-39.73801954,98.87386000
-39.69801954,98.87386000
-39.65801954,95.34592000
-39.61801954,93.58195000
-39.57801954,91.81799000
-39.53801954,91.81799000
-39.49801954,88.29005000
-39.45801954,88.29005000
-39.41801954,86.52608000
-39.37801954,84.75600000
-39.33801954,82.99203000
-39.29801954,81.22807000
-39.25801954,79.46410000
-39.21801954,77.70013000
-39.17801955,75.93616000
-39.13801955,74.17219000
-39.09801955,72.40822000
-39.05801955,70.64425000
-39.01801955,70.64425000
-38.97801955,67.11631000
-38.93801955,65.35233000
-38.89801955,65.35233000
-38.85801955,63.58836000
-38.81801955,60.06042000
-38.77801955,58.29646000
-38.73801955,56.52638000
-38.69801955,56.52638000
-38.65801955,52.99844000
-38.61801955,51.23447000
-38.57801955,51.23447000
-38.53801955,49.47050000
-38.49801955,45.94257000
-38.45801955,44.17860000
-38.41801955,42.41463000
-38.37801955,40.65065000
-38.33801955,38.88668000
-38.29801955,37.12271000
-38.25801955,35.35874000
-38.21801955,33.59477000
-38.17801955,31.83080000
-38.13801955,30.06684000
-38.09801955,28.29676000
-38.05801955,26.53279000
-38.01801955,24.76882000
-37.97801955,23.00485000
-37.93801955,21.24088000
-37.89801955,19.47691000
-37.85801955,17.71294000
-37.81801955,15.94897000
-37.77801955,14.18500000
-37.73801955,10.65706000
-37.69801955,8.89309300
-37.65801955,7.12912400
-37.61801955,5.36515400
-37.57801955,3.60118400
-37.53801955,1.83721400
-37.49801956,0.07324442
-37.45801956,-1.69072500
-37.41801956,-3.45469500
-37.37801956,-5.21866500
-37.33801956,-6.98263500
-37.29801956,-8.74660500
-37.25801956,-10.51057000
-37.21801956,-12.27454000
-37.17801956,-14.03851000
-37.13801956,-17.56645000
-37.09801956,-19.33042000
-37.05801956,-19.33042000
-37.01801956,-21.09439000
-36.97801956,-24.62233000
-36.93801956,-26.39241000
-36.89801956,-28.15638000
-36.85801956,-29.92035000
-36.81801956,-31.68431000
-36.77801956,-33.44828000
-36.73801956,-35.21225000
-36.69801956,-36.97623000
-36.65801956,-38.74020000
-36.61801956,-40.50417000
-36.57801956,-42.26814000
-36.53801956,-45.79607000
-36.49801956,-45.79607000
-36.45801956,-47.56004000
-36.41801956,-49.32401000
-36.37801956,-51.08798000
-36.33801956,-52.85195000
-36.29801956,-54.62203000
-36.25801956,-56.38600000
-36.21801956,-58.14997000
-36.17801956,-61.67791000
-36.13801956,-61.67791000
-36.09801956,-63.44188000
-36.05801956,-65.20585000
-36.01801956,-68.73379000
-35.97801956,-68.73379000
-35.93801956,-70.49776000
-35.89801956,-74.02570000
-35.85801957,-74.02570000
-35.81801957,-75.78967000
-35.77801957,-77.55363000
-35.73801957,-79.31760000
-35.69801957,-82.85165000
-35.65801957,-82.85165000
-35.61801957,-84.61562000
-35.57801957,-86.37959000
-35.53801957,-88.14356000
-35.49801957,-89.90753000
-35.45801957,-89.90753000
-35.41801957,-93.43547000
-35.37801957,-95.19944000
-35.33801957,-96.96341000
-35.29801957,-96.96341000
-35.25801957,-98.72738000
-35.21801957,-100.49130000
-35.17801957,-102.25530000
-35.13801957,-104.01930000
-35.09801957,-104.01930000
-35.05801957,-107.54720000
-35.01801957,-109.31120000
-34.97801957,-109.31120000
-34.93801957,-111.08130000
-34.89801957,-111.08130000
-34.85801957,-114.60920000
-34.81801957,-116.37320000
-34.77801957,-116.37320000
-34.73801957,-118.13720000
-34.69801957,-119.90110000
-34.65801957,-121.66510000
-34.61801957,-123.42910000
-34.57801957,-125.19300000
-34.53801957,-125.19300000
-34.49801957,-126.95700000
-34.45801957,-128.72100000
-34.41801957,-130.48490000
-34.37801957,-132.24890000
-34.33801957,-132.24890000
-34.29801957,-134.01290000
-34.25801957,-134.01290000
-34.21801958,-137.54080000
-34.17801958,-139.31090000
-34.13801958,-139.31090000
-34.09801958,-141.07490000
-34.05801958,-141.07490000
-34.01801958,-141.07490000
-33.97801958,-144.60280000
-33.93801958,-146.36680000
-33.89801958,-146.36680000
-33.85801958,-146.36680000
-33.81801958,-148.13070000
-33.77801958,-149.89470000
-33.73801958,-151.65870000
-33.69801958,-151.65870000
-33.65801958,-153.42260000
-33.61801958,-153.42260000
-33.57801958,-153.42260000
-33.53801958,-155.18660000
-33.49801958,-156.95060000
-33.45801958,-156.95060000
-33.41801958,-158.71460000
-33.37801958,-160.47850000
-33.33801958,-160.47850000
-33.29801958,-162.24250000
-33.25801958,-162.24250000
-33.21801958,-162.24250000
-33.17801958,-164.00650000
-33.13801958,-165.77040000
-33.09801958,-167.54050000
-33.05801958,-167.54050000
-33.01801958,-167.54050000
-32.97801958,-167.54050000
-32.93801958,-169.30450000
-32.89801958,-169.30450000
-32.85801958,-172.83240000
-32.81801958,-172.83240000
-32.77801958,-172.83240000
-32.73801958,-174.59640000
-32.69801958,-174.59640000
-32.65801958,-174.59640000
-32.61801958,-174.59640000
-32.57801959,-176.36040000
-32.53801959,-176.36040000
-32.49801959,-179.88830000
-32.45801959,-176.36040000
-32.41801959,-176.36040000
-32.37801959,-179.88830000
-32.33801959,-179.88830000
-32.29801959,-181.65230000
-32.25801959,-181.65230000
-32.21801959,-181.65230000
-32.17801959,-181.65230000
-32.13801959,-181.65230000
-32.09801959,-181.65230000
-32.05801959,-181.65230000
-32.01801959,-181.65230000
-31.97801959,-183.41620000
-31.93801959,-183.41620000
-31.89801959,-183.41620000
-31.85801959,-183.41620000
-31.81801959,-183.41620000
-31.77801959,-183.41620000
-31.73801959,-185.18020000
-31.69801959,-185.18020000
-31.65801959,-186.94420000
-31.61801959,-185.18020000
-31.57801959,-186.94420000
-31.53801959,-186.94420000
-31.49801959,-186.94420000
-31.45801959,-186.94420000
-31.41801959,-186.94420000
-31.37801959,-186.94420000
-31.33801959,-186.94420000
-31.29801959,-186.94420000
-31.25801959,-186.94420000
-31.21801959,-186.94420000
-31.17801959,-186.94420000
-31.13801959,-186.94420000
-31.09801959,-186.94420000
-31.05801959,-186.94420000
-31.01801959,-186.94420000
-30.97801959,-186.94420000
-30.93801960,-186.94420000
-30.89801960,-186.94420000
-30.85801960,-186.94420000
-30.81801960,-185.18020000
-30.77801960,-186.94420000
-30.73801960,-186.94420000
-30.69801960,-185.18020000
-30.65801960,-183.41620000
-30.61801960,-183.41620000
-30.57801960,-183.41620000
-30.53801960,-183.41620000
-30.49801960,-183.41620000
-30.45801960,-181.65230000
-30.41801960,-181.65230000
-30.37801960,-181.65230000
-30.33801960,-181.65230000
-30.29801960,-181.65230000
-30.25801960,-181.65230000
-30.21801960,-181.65230000
-30.17801960,-181.65230000
-30.13801960,-179.88830000
-30.09801960,-178.12430000
-30.05801960,-178.12430000
-30.01801960,-178.12430000
-29.97801960,-176.36040000
-29.93801960,-176.36040000
-29.89801960,-174.59640000
-29.85801960,-174.59640000
-29.81801960,-174.59640000
-29.77801960,-174.59640000
-29.73801960,-174.59640000
-29.69801960,-172.83240000
-29.65801960,-172.83240000
-29.61801960,-171.06850000
-29.57801960,-171.06850000
-29.53801960,-169.30450000
-29.49801960,-169.30450000
-29.45801960,-169.30450000
-29.41801960,-167.54050000
-29.37801960,-167.54050000
-29.33801960,-165.77040000
-29.29801961,-165.77040000
-29.25801961,-164.00650000
-29.21801961,-162.24250000
-29.17801961,-162.24250000
-29.13801961,-160.47850000
-29.09801961,-160.47850000
-29.05801961,-160.47850000
-29.01801961,-158.71460000
-28.97801961,-158.71460000
-28.93801961,-155.18660000
-28.89801961,-155.18660000
-28.85801961,-155.18660000
-28.81801961,-153.42260000
-28.77801961,-153.42260000
-28.73801961,-151.65870000
-28.69801961,-149.89470000
-28.65801961,-148.13070000
-28.61801961,-148.13070000
-28.57801961,-146.36680000
-28.53801961,-146.36680000
-28.49801961,-144.60280000
-28.45801961,-144.60280000
-28.41801961,-141.07490000
-28.37801961,-141.07490000
-28.33801961,-139.31090000
-28.29801961,-139.31090000
-28.25801961,-137.54080000
-28.21801961,-137.54080000
-28.17801961,-134.01290000
-28.13801961,-134.01290000
-28.09801961,-132.24890000
-28.05801961,-130.48490000
-28.01801961,-130.48490000
-27.97801961,-128.72100000
-27.93801961,-126.95700000
-27.89801961,-125.19300000
-27.85801961,-125.19300000
-27.81801961,-121.66510000
-27.77801961,-119.90110000
-27.73801961,-119.90110000
-27.69801961,-118.13720000
-27.65801962,-116.37320000
-27.61801962,-114.60920000
-27.57801962,-112.84520000
-27.53801962,-111.08130000
-27.49801962,-111.08130000
-27.45801962,-109.31120000
-27.41801962,-107.54720000
-27.37801962,-105.78330000
-27.33801962,-104.01930000
-27.29801962,-104.01930000
-27.25801962,-102.25530000
-27.21801962,-98.72738000
-27.17801962,-98.72738000
-27.13801962,-96.96341000
-27.09801962,-95.19944000
-27.05801962,-93.43547000
-27.01801962,-91.67150000
-26.97801962,-89.90753000
-26.93801962,-88.14356000
-26.89801962,-86.37959000
-26.85801962,-84.61562000
-26.81801962,-82.85165000
-26.77801962,-82.85165000
-26.73801962,-79.31760000
-26.69801962,-77.55363000
-26.65801962,-75.78967000
-26.61801962,-75.78967000
-26.57801962,-74.02570000
-26.53801962,-70.49776000
-26.49801962,-68.73379000
-26.45801962,-68.73379000
-26.41801962,-66.96982000
-26.37801962,-63.44188000
-26.33801962,-61.67791000
-26.29801962,-61.67791000
-26.25801962,-59.91394000
-26.21801962,-56.38600000
-26.17801962,-54.62203000
-26.13801962,-54.62203000
-26.09801962,-52.85195000
-26.05801962,-49.32401000
-26.01801962,-49.32401000
-25.97801963,-47.56004000
-25.93801963,-45.79607000
-25.89801963,-42.26814000
-25.85801963,-40.50417000
-25.81801963,-40.50417000
-25.77801963,-36.97623000
-25.73801963,-36.97623000
-25.69801963,-33.44828000
-25.65801963,-33.44828000
-25.61801963,-31.68431000
-25.57801963,-28.15638000
-25.53801963,-26.39241000
-25.49801963,-24.62233000
-25.45801963,-22.85836000
-25.41801963,-21.09439000
-25.37801963,-19.33042000
-25.33801963,-17.56645000
-25.29801963,-14.03851000
-25.25801963,-14.03851000
-25.21801963,-12.27454000
-25.17801963,-10.51057000
-25.13801963,-6.98263500
-25.09801963,-6.98263500
-25.05801963,-5.21866500
-25.01801963,-1.69072500
-24.97801963,0.07324442
-24.93801963,1.83721400
-24.89801963,1.83721400
-24.85801963,3.60118400
-24.81801963,7.12912400
-24.77801963,8.89309300
-24.73801963,8.89309300
-24.69801963,12.42103000
-24.65801963,14.18500000
-24.61801963,15.94897000
-24.57801963,17.71294000
-24.53801963,21.24088000
-24.49801963,23.00485000
-24.45801963,23.00485000
-24.41801963,24.76882000
-24.37801963,28.29676000
-24.33801964,30.06684000
-24.29801964,30.06684000
-24.25801964,33.59477000
-24.21801964,35.35874000
-24.17801964,37.12271000
-24.13801964,38.88668000
-24.09801964,38.88668000
-24.05801964,42.41463000
-24.01801964,44.17860000
-23.97801964,44.17860000
-23.93801964,47.70654000
-23.89801964,49.47050000
-23.85801964,51.23447000
-23.81801964,52.99844000
-23.77801964,54.76241000
-23.73801964,56.52638000
-23.69801964,58.29646000
-23.65801964,60.06042000
-23.61801964,61.82440000
-23.57801964,63.58836000
-23.53801964,65.35233000
-23.49801964,67.11631000
-23.45801964,68.88028000
-23.41801964,70.64425000
-23.37801964,72.40822000
-23.33801964,74.17219000
-23.29801964,75.93616000
-23.25801964,77.70013000
-23.21801964,79.46410000
-23.17801964,79.46410000
-23.13801964,81.22807000
-23.09801964,82.99203000
-23.05801964,86.52608000
-23.01801964,86.52608000
-22.97801964,88.29005000
-22.93801964,90.05402000
-22.89801964,91.81799000
-22.85801964,93.58195000
-22.81801964,95.34592000
-22.77801964,95.34592000
-22.73801964,98.87386000
-22.69801965,100.63780000
-22.65801965,100.63780000
-22.61801965,102.40180000
-22.57801965,105.92970000
-22.53801965,105.92970000
-22.49801965,107.69370000
-22.45801965,109.45770000
-22.41801965,111.22170000
-22.37801965,112.98560000
-22.33801965,114.75570000
-22.29801965,114.75570000
-22.25801965,116.51970000
-22.21801965,118.28360000
-22.17801965,120.04760000
-22.13801965,121.81160000
-22.09801965,121.81160000
-22.05801965,123.57550000
-22.01801965,123.57550000
-21.97801965,127.10350000
-21.93801965,128.86740000
-21.89801965,128.86740000
-21.85801965,130.63140000
-21.81801965,130.63140000
-21.77801965,134.15940000
-21.73801965,135.92330000
-21.69801965,135.92330000
-21.65801965,137.68730000
-21.61801965,137.68730000
-21.57801965,139.45130000
-21.53801965,141.21520000
-21.49801965,142.98530000
-21.45801965,142.98530000
-21.41801965,144.74930000
-21.37801965,144.74930000
-21.33801965,146.51330000
-21.29801965,148.27720000
-21.25801965,150.04120000
-21.21801965,150.04120000
-21.17801965,150.04120000
-21.13801965,151.80520000
-21.09801965,151.80520000
-21.05801966,155.33310000
-21.01801966,155.33310000
-20.97801966,157.09710000
-20.93801966,157.09710000
-20.89801966,157.09710000
-20.85801966,157.09710000
-20.81801966,160.62500000
-20.77801966,160.62500000
-20.73801966,162.38900000
-20.69801966,162.38900000
-20.65801966,164.15300000
-20.61801966,164.15300000
-20.57801966,165.91690000
-20.53801966,165.91690000
-20.49801966,165.91690000
-20.45801966,167.68090000
-20.41801966,169.44490000
-20.37801966,169.44490000
-20.33801966,169.44490000
-20.29801966,171.21490000
-20.25801966,171.21490000
-20.21801966,171.21490000
-20.17801966,172.97890000
-20.13801966,172.97890000
-20.09801966,174.74290000
-20.05801966,174.74290000
-20.01801966,176.50690000
-19.97801966,176.50690000
-19.93801966,176.50690000
-19.89801966,176.50690000
-19.85801966,178.27080000
-19.81801966,178.27080000
-19.77801966,178.27080000
-19.73801966,178.27080000
-19.69801966,178.27080000
-19.65801966,180.03480000
-19.61801966,180.03480000
-19.57801966,180.03480000
-19.53801966,180.03480000
-19.49801966,181.79880000
-19.45801966,183.56270000
-19.41801967,181.79880000
-19.37801967,183.56270000
-19.33801967,183.56270000
-19.29801967,183.56270000
-19.25801967,183.56270000
-19.21801967,183.56270000
-19.17801967,183.56270000
-19.13801967,185.32670000
-19.09801967,185.32670000
-19.05801967,185.32670000
-19.01801967,185.32670000
-18.97801967,185.32670000
-18.93801967,185.32670000
-18.89801967,185.32670000
-18.85801967,185.32670000
-18.81801967,185.32670000
-18.77801967,185.32670000
-18.73801967,185.32670000
-18.69801967,185.32670000
-18.65801967,185.32670000
-18.61801967,185.32670000
-18.57801967,185.32670000
-18.53801967,185.32670000
-18.49801967,185.32670000
-18.45801967,185.32670000
-18.41801967,185.32670000
-18.37801967,185.32670000
-18.33801967,183.56270000
-18.29801967,185.32670000
-18.25801967,183.56270000
-18.21801967,183.56270000
-18.17801967,183.56270000
-18.13801967,183.56270000
-18.09801967,183.56270000
-18.05801967,183.56270000
-18.01801967,181.79880000
-17.97801967,183.56270000
-17.93801967,181.79880000
-17.89801967,180.03480000
-17.85801967,180.03480000
-17.81801967,180.03480000
-17.77801968,178.27080000
-17.73801968,178.27080000
-17.69801968,178.27080000
-17.65801968,178.27080000
-17.61801968,178.27080000
-17.57801968,176.50690000
-17.53801968,176.50690000
-17.49801968,178.27080000
-17.45801968,174.74290000
-17.41801968,176.50690000
-17.37801968,174.74290000
-17.33801968,172.97890000
-17.29801968,172.97890000
-17.25801968,172.97890000
-17.21801968,171.21490000
-17.17801968,171.21490000
-17.13801968,169.44490000
-17.09801968,169.44490000
-17.05801968,169.44490000
-17.01801968,169.44490000
-16.97801968,165.91690000
-16.93801968,165.91690000
-16.89801968,165.91690000
-16.85801968,164.15300000
-16.81801968,164.15300000
-16.77801968,164.15300000
-16.73801968,162.38900000
-16.69801968,160.62500000
-16.65801968,160.62500000
-16.61801968,158.86110000
-16.57801968,157.09710000
-16.53801968,157.09710000
-16.49801968,157.09710000
-16.45801968,157.09710000
-16.41801968,155.33310000
-16.37801968,151.80520000
-16.33801968,151.80520000
-16.29801968,150.04120000
-16.25801968,150.04120000
-16.21801968,150.04120000
-16.17801968,148.27720000
-16.13801969,148.27720000
-16.09801969,146.51330000
-16.05801969,144.74930000
-16.01801969,142.98530000
-15.97801969,142.98530000
-15.93801969,141.21520000
-15.89801969,139.45130000
-15.85801969,137.68730000
-15.81801969,137.68730000
-15.77801969,135.92330000
-15.73801969,135.92330000
-15.69801969,134.15940000
-15.65801969,132.39540000
-15.61801969,132.39540000
-15.57801969,128.86740000
-15.53801969,128.86740000
-15.49801969,127.10350000
-15.45801969,127.10350000
-15.41801969,123.57550000
-15.37801969,121.81160000
-15.33801969,121.81160000
-15.29801969,120.04760000
-15.25801969,118.28360000
-15.21801969,116.51970000
-15.17801969,114.75570000
-15.13801969,114.75570000
-15.09801969,112.98560000
-15.05801969,112.98560000
-15.01801969,109.45770000
-14.97801969,107.69370000
-14.93801969,107.69370000
-14.89801969,105.92970000
-14.85801969,104.16580000
-14.81801969,102.40180000
-14.77801969,100.63780000
-14.73801969,98.87386000
-14.69801969,97.10989000
-14.65801969,95.34592000
-14.61801969,93.58195000
-14.57801969,93.58195000
-14.53801969,91.81799000
-14.49801969,88.29005000
-14.45801970,86.52608000
-14.41801970,86.52608000
-14.37801970,84.75600000
-14.33801970,82.99203000
-14.29801970,81.22807000
-14.25801970,79.46410000
-14.21801970,77.70013000
-14.17801970,77.70013000
-14.13801970,74.17219000
-14.09801970,72.40822000
-14.05801970,72.40822000
-14.01801970,70.64425000
-13.97801970,67.11631000
-13.93801970,65.35233000
-13.89801970,63.58836000
-13.85801970,63.58836000
-13.81801970,60.06042000
-13.77801970,58.29646000
-13.73801970,58.29646000
-13.69801970,56.52638000
-13.65801970,52.99844000
-13.61801970,51.23447000
-13.57801970,49.47050000
-13.53801970,49.47050000
-13.49801970,45.94257000
-13.45801970,44.17860000
-13.41801970,42.41463000
-13.37801970,40.65065000
-13.33801970,38.88668000
-13.29801970,37.12271000
-13.25801970,35.35874000
-13.21801970,33.59477000
-13.17801970,31.83080000
-13.13801970,30.06684000
-13.09801970,28.29676000
-13.05801970,26.53279000
-13.01801970,23.00485000
-12.97801970,23.00485000
-12.93801970,21.24088000
-12.89801970,19.47691000
-12.85801970,15.94897000
-12.81801971,15.94897000
-12.77801971,14.18500000
-12.73801971,10.65706000
-12.69801971,8.89309300
-12.65801971,7.12912400
-12.61801971,5.36515400
-12.57801971,3.60118400
-12.53801971,1.83721400
-12.49801971,0.07324442
-12.45801971,-1.69072500
-12.41801971,-3.45469500
-12.37801971,-5.21866500
-12.33801971,-6.98263500
-12.29801971,-8.74660500
-12.25801971,-12.27454000
-12.21801971,-12.27454000
-12.17801971,-14.03851000
-12.13801971,-17.56645000
-12.09801971,-19.33042000
-12.05801971,-21.09439000
-12.01801971,-21.09439000
-11.97801971,-24.62233000
-11.93801971,-26.39241000
-11.89801971,-28.15638000
-11.85801971,-29.92035000
-11.81801971,-31.68431000
-11.77801971,-33.44828000
-11.73801971,-35.21225000
-11.69801971,-36.97623000
-11.65801971,-38.74020000
-11.61801971,-40.50417000
-11.57801971,-42.26814000
-11.53801971,-44.03210000
-11.49801971,-47.56004000
-11.45801971,-47.56004000
-11.41801971,-49.32401000
-11.37801971,-51.08798000
-11.33801971,-54.62203000
-11.29801971,-54.62203000
-11.25801971,-56.38600000
-11.21801971,-59.91394000
-11.17801972,-61.67791000
-11.13801972,-61.67791000
-11.09801972,-63.44188000
-11.05801972,-66.96982000
-11.01801972,-68.73379000
-10.97801972,-68.73379000
-10.93801972,-70.49776000
-10.89801972,-74.02570000
-10.85801972,-75.78967000
-10.81801972,-74.02570000
-10.77801972,-77.55363000
-10.73801972,-81.08157000
-10.69801972,-82.85165000
-10.65801972,-82.85165000
-10.61801972,-84.61562000
-10.57801972,-84.61562000
-10.53801972,-88.14356000
-10.49801972,-89.90753000
-10.45801972,-89.90753000
-10.41801972,-91.67150000
-10.37801972,-93.43547000
-10.33801972,-96.96341000
-10.29801972,-96.96341000
-10.25801972,-98.72738000
-10.21801972,-102.25530000
-10.17801972,-102.25530000
-10.13801972,-104.01930000
-10.09801972,-105.78330000
-10.05801972,-107.54720000
-10.01801972,-109.31120000
-9.97801972,-111.08130000
-9.93801972,-111.08130000
-9.89801972,-112.84520000
-9.85801972,-114.60920000
-9.81801972,-116.37320000
-9.77801972,-118.13720000
-9.73801972,-118.13720000
-9.69801972,-119.90110000
-9.65801972,-121.66510000
-9.61801972,-123.42910000
-9.57801972,-125.19300000
-9.53801973,-126.95700000
-9.49801973,-126.95700000
-9.45801973,-128.72100000
-9.41801973,-130.48490000
-9.37801973,-132.24890000
-9.33801973,-132.24890000
-9.29801973,-132.24890000
-9.25801973,-135.77680000
-9.21801973,-137.54080000
-9.17801973,-137.54080000
-9.13801973,-139.31090000
-9.09801973,-141.07490000
-9.05801973,-141.07490000
-9.01801973,-142.83880000
-8.97801973,-144.60280000
-8.93801973,-144.60280000
-8.89801973,-146.36680000
-8.85801973,-146.36680000
-8.81801973,-148.13070000
-8.77801973,-149.89470000
-8.73801973,-151.65870000
-8.69801973,-151.65870000
-8.65801973,-153.42260000
-8.61801973,-153.42260000
-8.57801973,-155.18660000
-8.53801973,-155.18660000
-8.49801973,-158.71460000
-8.45801973,-158.71460000
-8.41801973,-160.47850000
-8.37801973,-160.47850000
-8.33801973,-160.47850000
-8.29801973,-162.24250000
-8.25801973,-162.24250000
-8.21801973,-164.00650000
-8.17801973,-164.00650000
-8.13801973,-165.77040000
-8.09801973,-167.54050000
-8.05801973,-167.54050000
-8.01801973,-167.54050000
-7.97801973,-167.54050000
-7.93801973,-169.30450000
-7.89801974,-171.06850000
-7.85801974,-171.06850000
-7.81801974,-172.83240000
-7.77801974,-172.83240000
-7.73801974,-172.83240000
-7.69801974,-174.59640000
-7.65801974,-174.59640000
-7.61801974,-174.59640000
-7.57801974,-174.59640000
-7.53801974,-176.36040000
-7.49801974,-176.36040000
-7.45801974,-176.36040000
-7.41801974,-178.12430000
-7.37801974,-179.88830000
-7.33801974,-179.88830000
-7.29801974,-179.88830000
-7.25801974,-181.65230000
-7.21801974,-181.65230000
-7.17801974,-181.65230000
-7.13801974,-181.65230000
-7.09801974,-181.65230000
-7.05801974,-181.65230000
-7.01801974,-183.41620000
-6.97801974,-183.41620000
-6.93801974,-183.41620000
-6.89801974,-183.41620000
-6.85801974,-183.41620000
-6.81801974,-183.41620000
-6.77801974,-183.41620000
-6.73801974,-185.18020000
-6.69801974,-185.18020000
-6.65801974,-185.18020000
-6.61801974,-186.94420000
-6.57801974,-186.94420000
-6.53801974,-186.94420000
-6.49801974,-186.94420000
-6.45801974,-186.94420000
-6.41801974,-186.94420000
-6.37801974,-186.94420000
-6.33801974,-186.94420000
-6.29801974,-186.94420000
-6.25801975,-188.70810000
-6.21801975,-186.94420000
-6.17801975,-186.94420000
-6.13801975,-186.94420000
-6.09801975,-186.94420000
-6.05801975,-186.94420000
-6.01801975,-186.94420000
-5.97801975,-186.94420000
-5.93801975,-186.94420000
-5.89801975,-186.94420000
-5.85801975,-185.18020000
-5.81801975,-185.18020000
-5.77801975,-185.18020000
-5.73801975,-185.18020000
-5.69801975,-183.41620000
-5.65801975,-183.41620000
-5.61801975,-185.18020000
-5.57801975,-183.41620000
-5.53801975,-183.41620000
-5.49801975,-183.41620000
-5.45801975,-181.65230000
-5.41801975,-181.65230000
-5.37801975,-181.65230000
-5.33801975,-181.65230000
-5.29801975,-181.65230000
-5.25801975,-181.65230000
-5.21801975,-181.65230000
-5.17801975,-181.65230000
-5.13801975,-179.88830000
-5.09801975,-178.12430000
-5.05801975,-178.12430000
-5.01801975,-178.12430000
-4.97801975,-176.36040000
-4.93801975,-176.36040000
-4.89801975,-174.59640000
-4.85801975,-174.59640000
-4.81801975,-174.59640000
-4.77801975,-174.59640000
-4.73801975,-174.59640000
-4.69801975,-172.83240000
-4.65801975,-172.83240000
-4.61801976,-172.83240000
-4.57801976,-169.30450000
-4.53801976,-169.30450000
-4.49801976,-169.30450000
-4.45801976,-167.54050000
-4.41801976,-167.54050000
-4.37801976,-167.54050000
-4.33801976,-167.54050000
-4.29801976,-165.77040000
-4.25801976,-164.00650000
-4.21801976,-162.24250000
-4.17801976,-162.24250000
-4.13801976,-162.24250000
-4.09801976,-160.47850000
-4.05801976,-160.47850000
-4.01801976,-158.71460000
-3.97801976,-156.95060000
-3.93801976,-155.18660000
-3.89801976,-155.18660000
-3.85801976,-153.42260000
-3.81801976,-153.42260000
-3.77801976,-153.42260000
-3.73801976,-151.65870000
-3.69801976,-148.13070000
-3.65801976,-148.13070000
-3.61801976,-148.13070000
-3.57801976,-146.36680000
-3.53801976,-146.36680000
-3.49801976,-144.60280000
-3.45801976,-144.60280000
-3.41801976,-141.07490000
-3.37801976,-141.07490000
-3.33801976,-139.31090000
-3.29801976,-139.31090000
-3.25801976,-137.54080000
-3.21801976,-137.54080000
-3.17801976,-134.01290000
-3.13801976,-134.01290000
-3.09801976,-132.24890000
-3.05801976,-132.24890000
-3.01801976,-130.48490000
-2.97801977,-128.72100000
-2.93801977,-126.95700000
-2.89801977,-125.19300000
-2.85801977,-123.42910000
-2.81801977,-121.66510000
-2.77801977,-121.66510000
-2.73801977,-119.90110000
-2.69801977,-118.13720000
-2.65801977,-116.37320000
-2.61801977,-114.60920000
-2.57801977,-112.84520000
-2.53801977,-111.08130000
-2.49801977,-111.08130000
-2.45801977,-109.31120000
-2.41801977,-107.54720000
-2.37801977,-105.78330000
-2.33801977,-104.01930000
-2.29801977,-104.01930000
-2.25801977,-100.49130000
-2.21801977,-98.72738000
-2.17801977,-98.72738000
-2.13801977,-96.96341000
-2.09801977,-95.19944000
-2.05801977,-93.43547000
-2.01801977,-91.67150000
-1.97801977,-89.90753000
-1.93801977,-88.14356000
-1.89801977,-88.14356000
-1.85801977,-84.61562000
-1.81801977,-82.85165000
-1.77801977,-82.85165000
-1.73801977,-81.08157000
-1.69801977,-79.31760000
-1.65801977,-75.78967000
-1.61801977,-75.78967000
-1.57801977,-74.02570000
-1.53801977,-70.49776000
-1.49801977,-70.49776000
-1.45801977,-68.73379000
-1.41801977,-66.96982000
-1.37801977,-63.44188000
-1.33801977,-63.44188000
-1.29801978,-61.67791000
-1.25801978,-59.91394000
-1.21801978,-56.38600000
-1.17801978,-54.62203000
-1.13801978,-54.62203000
-1.09801978,-52.85195000
-1.05801978,-51.08798000
-1.01801978,-49.32401000
-0.97801978,-47.56004000
-0.93801978,-44.03210000
-0.89801978,-42.26814000
-0.85801978,-40.50417000
-0.81801978,-38.74020000
-0.77801978,-36.97623000
-0.73801978,-35.21225000
-0.69801978,-33.44828000
-0.65801978,-33.44828000
-0.61801978,-29.92035000
-0.57801978,-28.15638000
-0.53801978,-26.39241000
-0.49801978,-26.39241000
-0.45801978,-22.85836000
-0.41801978,-21.09439000
-0.37801978,-19.33042000
-0.33801978,-17.56645000
-0.29801978,-15.80248000
-0.25801978,-14.03851000
-0.21801978,-12.27454000
-0.17801978,-10.51057000
-0.13801978,-6.98263500
-0.09801978,-5.21866500
-0.05801978,-5.21866500
-0.01801978,-3.45469500
0.02198022,0.07324442
0.06198022,1.83721400
0.10198022,1.83721400
0.14198022,5.36515400
0.18198022,7.12912400
0.22198022,8.89309300
0.26198022,8.89309300
0.30198022,12.42103000
0.34198021,14.18500000
0.38198021,15.94897000
0.42198021,17.71294000
0.46198021,21.24088000
0.50198021,21.24088000
0.54198021,23.00485000
0.58198021,24.76882000
0.62198021,28.29676000
0.66198021,30.06684000
0.70198021,30.06684000
0.74198021,33.59477000
0.78198021,35.35874000
0.82198021,37.12271000
0.86198021,37.12271000
0.90198021,38.88668000
0.94198021,42.41463000
0.98198021,44.17860000
1.02198021,44.17860000
1.06198021,47.70654000
1.10198021,49.47050000
1.14198021,51.23447000
1.18198021,52.99844000
1.22198021,54.76241000
1.26198021,56.52638000
1.30198021,58.29646000
1.34198021,60.06042000
1.38198021,61.82440000
1.42198021,63.58836000
1.46198021,63.58836000
1.50198021,67.11631000
1.54198021,70.64425000
1.58198021,70.64425000
1.62198021,72.40822000
1.66198021,74.17219000
1.70198021,75.93616000
1.74198021,77.70013000
1.78198021,79.46410000
1.82198021,79.46410000
1.86198021,81.22807000
1.90198021,84.75600000
1.94198021,84.75600000
1.98198020,86.52608000
2.02198020,88.29005000
2.06198020,90.05402000
2.10198020,91.81799000
2.14198020,93.58195000
2.18198020,95.34592000
2.22198020,97.10989000
2.26198020,98.87386000
2.30198020,100.63780000
2.34198020,100.63780000
2.38198020,102.40180000
2.42198020,105.92970000
2.46198020,105.92970000
2.50198020,107.69370000
2.54198020,109.45770000
2.58198020,111.22170000
2.62198020,112.98560000
2.66198020,114.75570000
2.70198020,114.75570000
2.74198020,116.51970000
2.78198020,118.28360000
2.82198020,120.04760000
2.86198020,120.04760000
2.90198020,121.81160000
2.94198020,123.57550000
2.98198020,125.33950000
3.02198020,127.10350000
3.06198020,128.86740000
3.10198020,128.86740000
3.14198020,130.63140000
3.18198020,132.39540000
3.22198020,134.15940000
3.26198020,135.92330000
3.30198020,135.92330000
3.34198020,135.92330000
3.38198020,137.68730000
3.42198020,139.45130000
3.46198020,141.21520000
3.50198020,142.98530000
3.54198020,142.98530000
3.58198020,144.74930000
3.62198019,144.74930000
3.66198019,146.51330000
3.70198019,148.27720000
3.74198019,150.04120000
3.78198019,150.04120000
3.82198019,150.04120000
3.86198019,151.80520000
3.90198019,153.56910000
3.94198019,153.56910000
3.98198019,157.09710000
4.02198019,155.33310000
4.06198019,157.09710000
4.10198019,158.86110000
4.14198019,158.86110000
4.18198019,158.86110000
4.22198019,162.38900000
4.26198019,162.38900000
4.30198019,162.38900000
4.34198019,164.15300000
4.38198019,164.15300000
4.42198019,164.15300000
4.46198019,165.91690000
4.50198019,165.91690000
4.54198019,167.68090000
4.58198019,169.44490000
4.62198019,169.44490000
4.66198019,171.21490000
4.70198019,171.21490000
4.74198019,171.21490000
4.78198019,171.21490000
4.82198019,172.97890000
4.86198019,172.97890000
4.90198019,174.74290000
4.94198019,174.74290000
4.98198019,174.74290000
5.02198019,176.50690000
5.06198019,176.50690000
5.10198019,176.50690000
5.14198019,176.50690000
5.18198019,178.27080000
5.22198019,178.27080000
5.26198018,178.27080000
5.30198018,178.27080000
5.34198018,178.27080000
5.38198018,180.03480000
5.42198018,180.03480000
5.46198018,180.03480000
5.50198018,180.03480000
5.54198018,181.79880000
5.58198018,181.79880000
5.62198018,183.56270000
5.66198018,183.56270000
5.70198018,183.56270000
5.74198018,183.56270000
5.78198018,183.56270000
5.82198018,185.32670000
5.86198018,185.32670000
5.90198018,185.32670000
5.94198018,185.32670000
5.98198018,185.32670000
6.02198018,185.32670000
6.06198018,185.32670000
6.10198018,185.32670000
6.14198018,185.32670000
6.18198018,185.32670000
6.22198018,185.32670000
6.26198018,185.32670000
6.30198018,185.32670000
6.34198018,185.32670000
6.38198018,185.32670000
6.42198018,185.32670000
6.46198018,185.32670000
6.50198018,185.32670000
6.54198018,185.32670000
6.58198018,185.32670000
6.62198018,185.32670000
6.66198018,185.32670000
6.70198018,183.56270000
6.74198018,183.56270000
6.78198018,183.56270000
6.82198018,183.56270000
6.86198018,183.56270000
6.90198017,183.56270000
6.94198017,183.56270000
6.98198017,183.56270000
7.02198017,180.03480000
7.06198017,181.79880000
7.10198017,180.03480000
7.14198017,180.03480000
7.18198017,178.27080000
7.22198017,178.27080000
7.26198017,178.27080000
7.30198017,178.27080000
7.34198017,178.27080000
7.38198017,178.27080000
7.42198017,178.27080000
7.46198017,176.50690000
7.50198017,176.50690000
7.54198017,176.50690000
7.58198017,176.50690000
7.62198017,174.74290000
7.66198017,172.97890000
7.70198017,171.21490000
7.74198017,171.21490000
7.78198017,171.21490000
7.82198017,171.21490000
7.86198017,171.21490000
7.90198017,171.21490000
7.94198017,169.44490000
7.98198017,167.68090000
8.02198017,167.68090000
8.06198017,165.91690000
8.10198017,165.91690000
8.14198017,164.15300000
8.18198017,164.15300000
8.22198017,164.15300000
8.26198017,162.38900000
8.30198017,162.38900000
8.34198017,160.62500000
8.38198017,158.86110000
8.42198017,157.09710000
8.46198017,157.09710000
8.50198017,157.09710000
8.54198016,155.33310000
8.58198016,155.33310000
8.62198016,153.56910000
8.66198016,151.80520000
8.70198016,151.80520000
8.74198016,150.04120000
8.78198016,150.04120000
8.82198016,148.27720000
8.86198016,148.27720000
8.90198016,146.51330000
8.94198016,144.74930000
8.98198016,142.98530000
9.02198016,142.98530000
9.06198016,141.21520000
9.10198016,141.21520000
9.14198016,137.68730000
9.18198016,137.68730000
9.22198016,135.92330000
9.26198016,135.92330000
9.30198016,134.15940000
9.34198016,130.63140000
9.38198016,130.63140000
9.42198016,128.86740000
9.46198016,128.86740000
9.50198016,127.10350000
9.54198016,127.10350000
9.58198016,123.57550000
9.62198016,121.81160000
9.66198016,121.81160000
9.70198016,120.04760000
9.74198016,118.28360000
9.78198016,116.51970000
9.82198016,114.75570000
9.86198016,114.75570000
9.90198016,112.98560000
9.94198016,112.98560000
9.98198016,109.45770000
10.02198016,107.69370000
10.06198016,107.69370000
10.10198016,105.92970000
10.14198016,104.16580000
10.18198016,102.40180000
10.22198015,100.63780000
10.26198015,98.87386000
10.30198015,97.10989000
10.34198015,95.34592000
10.38198015,93.58195000
10.42198015,93.58195000
10.46198015,91.81799000
10.50198015,90.05402000
10.54198015,88.29005000
10.58198015,86.52608000
10.62198015,84.75600000
10.66198015,82.99203000
10.70198015,81.22807000
10.74198015,79.46410000
10.78198015,77.70013000
10.82198015,77.70013000
10.86198015,74.17219000
10.90198015,72.40822000
10.94198015,72.40822000
10.98198015,70.64425000
11.02198015,67.11631000
11.06198015,65.35233000
11.10198015,63.58836000
11.14198015,63.58836000
11.18198015,60.06042000
11.22198015,58.29646000
11.26198015,58.29646000
11.30198015,56.52638000
11.34198015,52.99844000
11.38198015,51.23447000
11.42198015,49.47050000
11.46198015,47.70654000
11.50198015,45.94257000
11.54198015,44.17860000
11.58198015,42.41463000
11.62198015,40.65065000
11.66198015,38.88668000
11.70198015,37.12271000
11.74198015,35.35874000
11.78198015,33.59477000
11.82198015,31.83080000
11.86198014,30.06684000
11.90198014,28.29676000
11.94198014,26.53279000
11.98198014,24.76882000
12.02198014,23.00485000
12.06198014,19.47691000
12.10198014,19.47691000
12.14198014,17.71294000
12.18198014,15.94897000
12.22198014,12.42103000
12.26198014,10.65706000
12.30198014,8.89309300
12.34198014,8.89309300
12.38198014,7.12912400
12.42198014,3.60118400
12.46198014,1.83721400
12.50198014,0.07324442
12.54198014,-1.69072500
12.58198014,-3.45469500
12.62198014,-5.21866500
12.66198014,-6.98263500
12.70198014,-8.74660500
12.74198014,-12.27454000
12.78198014,-14.03851000
12.82198014,-15.80248000
12.86198014,-17.56645000
12.90198014,-19.33042000
12.94198014,-21.09439000
12.98198014,-22.85836000
13.02198014,-26.39241000
13.06198014,-26.39241000
13.10198014,-28.15638000
13.14198014,-28.15638000
13.18198014,-31.68431000
13.22198014,-33.44828000
13.26198014,-35.21225000
13.30198014,-36.97623000
13.34198014,-38.74020000
13.38198014,-40.50417000
13.42198014,-42.26814000
13.46198014,-45.79607000
13.50198013,-47.56004000
13.54198013,-47.56004000
13.58198013,-49.32401000
13.62198013,-52.85195000
13.66198013,-54.62203000
13.70198013,-54.62203000
13.74198013,-56.38600000
13.78198013,-59.91394000
13.82198013,-61.67791000
13.86198013,-63.44188000
13.90198013,-65.20585000
13.94198013,-65.20585000
13.98198013,-68.73379000
14.02198013,-68.73379000
14.06198013,-70.49776000
14.10198013,-74.02570000
14.14198013,-75.78967000
14.18198013,-75.78967000
14.22198013,-77.55363000
14.26198013,-79.31760000
14.30198013,-82.85165000
14.34198013,-82.85165000
14.38198013,-84.61562000
14.42198013,-86.37959000
14.46198013,-88.14356000
14.50198013,-89.90753000
14.54198013,-89.90753000
14.58198013,-91.67150000
14.62198013,-95.19944000
14.66198013,-96.96341000
14.70198013,-96.96341000
14.74198013,-98.72738000
14.78198013,-100.49130000
14.82198013,-104.01930000
14.86198013,-104.01930000
14.90198013,-105.78330000
14.94198013,-107.54720000
14.98198013,-109.31120000
15.02198013,-111.08130000
15.06198013,-111.08130000
15.10198013,-112.84520000
15.14198012,-112.84520000
15.18198012,-116.37320000
15.22198012,-118.13720000
15.26198012,-118.13720000
15.30198012,-119.90110000
15.34198012,-121.66510000
15.38198012,-123.42910000
15.42198012,-125.19300000
15.46198012,-126.95700000
15.50198012,-126.95700000
15.54198012,-128.72100000
15.58198012,-130.48490000
15.62198012,-132.24890000
15.66198012,-132.24890000
15.70198012,-134.01290000
15.74198012,-134.01290000
15.78198012,-137.54080000
15.82198012,-139.31090000
15.86198012,-139.31090000
15.90198012,-141.07490000
15.94198012,-141.07490000
15.98198012,-144.60280000
16.02198012,-144.60280000
16.06198012,-146.36680000
16.10198012,-146.36680000
16.14198012,-146.36680000
16.18198012,-148.13070000
16.22198012,-149.89470000
16.26198012,-149.89470000
16.30198012,-153.42260000
16.34198012,-153.42260000
16.38198012,-153.42260000
16.42198012,-153.42260000
16.46198012,-155.18660000
16.50198012,-156.95060000
16.54198012,-158.71460000
16.58198012,-160.47850000
16.62198012,-160.47850000
16.66198012,-160.47850000
16.70198012,-162.24250000
16.74198012,-162.24250000
16.78198011,-164.00650000
16.82198011,-164.00650000
16.86198011,-165.77040000
16.90198011,-167.54050000
16.94198011,-167.54050000
16.98198011,-167.54050000
17.02198011,-169.30450000
17.06198011,-169.30450000
17.10198011,-169.30450000
17.14198011,-171.06850000
17.18198011,-172.83240000
17.22198011,-172.83240000
17.26198011,-174.59640000
17.30198011,-174.59640000
17.34198011,-174.59640000
17.38198011,-174.59640000
17.42198011,-176.36040000
17.46198011,-176.36040000
17.50198011,-176.36040000
17.54198011,-178.12430000
17.58198011,-178.12430000
17.62198011,-178.12430000
17.66198011,-179.88830000
17.70198011,-181.65230000
17.74198011,-181.65230000
17.78198011,-181.65230000
17.82198011,-181.65230000
17.86198011,-181.65230000
17.90198011,-181.65230000
17.94198011,-181.65230000
17.98198011,-181.65230000
18.02198011,-183.41620000
18.06198011,-183.41620000
18.10198011,-183.41620000
18.14198011,-183.41620000
18.18198011,-183.41620000
18.22198011,-185.18020000
18.26198011,-183.41620000
18.30198011,-185.18020000
18.34198011,-186.94420000
18.38198011,-186.94420000
18.42198010,-186.94420000
18.46198010,-186.94420000
18.50198010,-186.94420000
18.54198010,-186.94420000
18.58198010,-186.94420000
18.62198010,-186.94420000
18.66198010,-186.94420000
18.70198010,-186.94420000
18.74198010,-185.18020000
18.78198010,-188.70810000
18.82198010,-186.94420000
18.86198010,-186.94420000
18.90198010,-186.94420000
18.94198010,-186.94420000
18.98198010,-186.94420000
19.02198010,-186.94420000
19.06198010,-186.94420000
19.10198010,-186.94420000
19.14198010,-186.94420000
19.18198010,-186.94420000
19.22198010,-186.94420000
19.26198010,-185.18020000
19.30198010,-185.18020000
19.34198010,-183.41620000
19.38198010,-183.41620000
19.42198010,-183.41620000
19.46198010,-183.41620000
19.50198010,-183.41620000
19.54198010,-183.41620000
19.58198010,-181.65230000
19.62198010,-181.65230000
19.66198010,-181.65230000
19.70198010,-181.65230000
19.74198010,-181.65230000
19.78198010,-181.65230000
19.82198010,-179.88830000
19.86198010,-179.88830000
19.90198010,-179.88830000
19.94198010,-179.88830000
19.98198010,-176.36040000
20.02198010,-176.36040000
20.06198009,-176.36040000
20.10198009,-176.36040000
20.14198009,-174.59640000
20.18198009,-174.59640000
20.22198009,-174.59640000
20.26198009,-174.59640000
20.30198009,-172.83240000
20.34198009,-172.83240000
20.38198009,-171.06850000
20.42198009,-171.06850000
20.46198009,-169.30450000
20.50198009,-169.30450000
20.54198009,-169.30450000
20.58198009,-167.54050000
20.62198009,-167.54050000
20.66198009,-165.77040000
20.70198009,-165.77040000
20.74198009,-164.00650000
20.78198009,-164.00650000
20.82198009,-162.24250000
20.86198009,-160.47850000
20.90198009,-160.47850000
20.94198009,-160.47850000
20.98198009,-158.71460000
21.02198009,-156.95060000
21.06198009,-156.95060000
21.10198009,-155.18660000
21.14198009,-153.42260000
21.18198009,-153.42260000
21.22198009,-153.42260000
21.26198009,-151.65870000
21.30198009,-151.65870000
21.34198009,-148.13070000
21.38198009,-148.13070000
21.42198009,-146.36680000
21.46198009,-146.36680000
21.50198009,-144.60280000
21.54198009,-144.60280000
21.58198009,-141.07490000
21.62198009,-141.07490000
21.66198009,-139.31090000
21.70198008,-139.31090000
21.74198008,-137.54080000
21.78198008,-135.77680000
21.82198008,-134.01290000
21.86198008,-132.24890000
21.90198008,-132.24890000
21.94198008,-130.48490000
21.98198008,-130.48490000
22.02198008,-128.72100000
22.06198008,-126.95700000
22.10198008,-125.19300000
22.14198008,-125.19300000
22.18198008,-121.66510000
22.22198008,-119.90110000
22.26198008,-118.13720000
22.30198008,-118.13720000
22.34198008,-116.37320000
22.38198008,-116.37320000
22.42198008,-112.84520000
22.46198008,-111.08130000
22.50198008,-111.08130000
22.54198008,-109.31120000
22.58198008,-107.54720000
22.62198008,-105.78330000
22.66198008,-104.01930000
22.70198008,-104.01930000
22.74198008,-100.49130000
22.78198008,-98.72738000
22.82198008,-96.96341000
22.86198008,-96.96341000
22.90198008,-95.19944000
22.94198008,-93.43547000
22.98198008,-91.67150000
23.02198008,-89.90753000
23.06198008,-88.14356000
23.10198008,-86.37959000
23.14198008,-84.61562000
23.18198008,-84.61562000
23.22198008,-82.85165000
23.26198008,-81.08157000
23.30198008,-77.55363000
23.34198008,-75.78967000
23.38198007,-75.78967000
23.42198007,-74.02570000
23.46198007,-72.26173000
23.50198007,-70.49776000
23.54198007,-68.73379000
23.58198007,-66.96982000
23.62198007,-65.20585000
23.66198007,-61.67791000
23.70198007,-61.67791000
23.74198007,-59.91394000
23.78198007,-58.14997000
23.82198007,-56.38600000
23.86198007,-54.62203000
23.90198007,-52.85195000
23.94198007,-49.32401000
23.98198007,-49.32401000
24.02198007,-47.56004000
24.06198007,-45.79607000
24.10198007,-42.26814000
24.14198007,-42.26814000
24.18198007,-40.50417000
24.22198007,-38.74020000
24.26198007,-35.21225000
24.30198007,-33.44828000
24.34198007,-31.68431000
24.38198007,-31.68431000
24.42198007,-28.15638000
24.46198007,-26.39241000
24.50198007,-24.62233000
24.54198007,-22.85836000
24.58198007,-21.09439000
24.62198007,-19.33042000
24.66198007,-17.56645000
24.70198007,-14.03851000
24.74198007,-12.27454000
24.78198007,-12.27454000
24.82198007,-10.51057000
24.86198007,-6.98263500
24.90198007,-5.21866500
24.94198007,-5.21866500
24.98198007,-3.45469500
25.02198006,0.07324442
25.06198006,1.83721400
25.10198006,3.60118400
25.14198006,5.36515400
25.18198006,7.12912400
25.22198006,8.89309300
25.26198006,10.65706000
25.30198006,12.42103000
25.34198006,14.18500000
25.38198006,15.94897000
25.42198006,17.71294000
25.46198006,21.24088000
25.50198006,23.00485000
25.54198006,23.00485000
25.58198006,24.76882000
25.62198006,28.29676000
25.66198006,30.06684000
25.70198006,30.06684000
25.74198006,33.59477000
25.78198006,35.35874000
25.82198006,37.12271000
25.86198006,38.88668000
25.90198006,40.65065000
25.94198006,42.41463000
25.98198006,44.17860000
26.02198006,44.17860000
26.06198006,47.70654000
26.10198006,49.47050000
26.14198006,51.23447000
26.18198006,52.99844000
26.22198006,54.76241000
26.26198006,56.52638000
26.30198006,58.29646000
26.34198006,58.29646000
26.38198006,61.82440000
26.42198006,63.58836000
26.46198006,65.35233000
26.50198006,65.35233000
26.54198006,68.88028000
26.58198006,70.64425000
26.62198006,72.40822000
26.66198005,74.17219000
26.70198005,74.17219000
26.74198005,77.70013000
26.78198005,79.46410000
26.82198005,79.46410000
26.86198005,84.75600000
26.90198005,84.75600000
26.94198005,86.52608000
26.98198005,86.52608000
27.02198005,88.29005000
27.06198005,90.05402000
27.10198005,91.81799000
27.14198005,93.58195000
27.18198005,93.58195000
27.22198005,97.10989000
27.26198005,98.87386000
27.30198005,100.63780000
27.34198005,100.63780000
27.38198005,102.40180000
27.42198005,104.16580000
27.46198005,107.69370000
27.50198005,107.69370000
27.54198005,109.45770000
27.58198005,109.45770000
27.62198005,112.98560000
27.66198005,112.98560000
27.70198005,114.75570000
27.74198005,116.51970000
27.78198005,118.28360000
27.82198005,120.04760000
27.86198005,120.04760000
27.90198005,121.81160000
27.94198005,121.81160000
27.98198005,125.33950000
28.02198005,127.10350000
28.06198005,128.86740000
28.10198005,128.86740000
28.14198005,130.63140000
28.18198005,130.63140000
28.22198005,134.15940000
28.26198005,134.15940000
28.30198004,135.92330000
28.34198004,137.68730000
28.38198004,137.68730000
28.42198004,139.45130000
28.46198004,141.21520000
28.50198004,142.98530000
28.54198004,142.98530000
28.58198004,142.98530000
28.62198004,144.74930000
28.66198004,146.51330000
28.70198004,148.27720000
28.74198004,148.27720000
28.78198004,150.04120000
28.82198004,150.04120000
28.86198004,151.80520000
28.90198004,151.80520000
28.94198004,153.56910000
28.98198004,155.33310000
29.02198004,155.33310000
29.06198004,157.09710000
29.10198004,157.09710000
29.14198004,158.86110000
29.18198004,160.62500000
29.22198004,162.38900000
29.26198004,162.38900000
29.30198004,162.38900000
29.34198004,164.15300000
29.38198004,164.15300000
29.42198004,164.15300000
29.46198004,165.91690000
29.50198004,165.91690000
29.54198004,167.68090000
29.58198004,169.44490000
29.62198004,169.44490000
29.66198004,169.44490000
29.70198004,171.21490000
29.74198004,171.21490000
29.78198004,171.21490000
29.82198004,171.21490000
29.86198004,172.97890000
29.90198004,174.74290000
29.94198003,174.74290000
29.98198003,174.74290000
30.02198003,176.50690000
30.06198003,176.50690000
30.10198003,176.50690000
30.14198003,178.27080000
30.18198003,178.27080000
30.22198003,178.27080000
30.26198003,178.27080000
30.30198003,178.27080000
30.34198003,178.27080000
30.38198003,180.03480000
30.42198003,180.03480000
30.46198003,180.03480000
30.50198003,181.79880000
30.54198003,181.79880000
30.58198003,183.56270000
30.62198003,183.56270000
30.66198003,183.56270000
30.70198003,183.56270000
30.74198003,183.56270000
30.78198003,183.56270000
30.82198003,185.32670000
30.86198003,183.56270000
30.90198003,185.32670000
30.94198003,185.32670000
30.98198003,185.32670000
31.02198003,185.32670000
31.06198003,185.32670000
31.10198003,185.32670000
31.14198003,185.32670000
31.18198003,185.32670000
31.22198003,185.32670000
31.26198003,185.32670000
31.30198003,185.32670000
31.34198003,185.32670000
31.38198003,185.32670000
31.42198003,185.32670000
31.46198003,185.32670000
31.50198003,185.32670000
31.54198003,185.32670000
31.58198002,185.32670000
31.62198002,185.32670000
31.66198002,185.32670000
31.70198002,183.56270000
31.74198002,183.56270000
31.78198002,183.56270000
31.82198002,183.56270000
31.86198002,183.56270000
31.90198002,183.56270000
31.94198002,183.56270000
31.98198002,183.56270000
32.02198002,181.79880000
32.06198002,180.03480000
32.10198002,180.03480000
32.14198002,180.03480000
32.18198002,178.27080000
32.22198002,180.03480000
32.26198002,178.27080000
32.30198002,178.27080000
32.34198002,178.27080000
32.38198002,178.27080000
32.42198002,176.50690000
32.46198002,176.50690000
32.50198002,176.50690000
32.54198002,174.74290000
32.58198002,174.74290000
32.62198002,172.97890000
32.66198002,172.97890000
32.70198002,172.97890000
32.74198002,171.21490000
32.78198002,171.21490000
32.82198002,171.21490000
32.86198002,171.21490000
32.90198002,169.44490000
32.94198002,169.44490000
32.98198002,169.44490000
33.02198002,165.91690000
33.06198002,165.91690000
33.10198002,165.91690000
33.14198002,164.15300000
33.18198002,164.15300000
33.22198001,164.15300000
33.26198001,162.38900000
33.30198001,160.62500000
33.34198001,160.62500000
33.38198001,158.86110000
33.42198001,157.09710000
33.46198001,157.09710000
33.50198001,157.09710000
33.54198001,155.33310000
33.58198001,155.33310000
33.62198001,151.80520000
33.66198001,153.56910000
33.70198001,150.04120000
33.74198001,150.04120000
33.78198001,150.04120000
33.82198001,148.27720000
33.86198001,146.51330000
33.90198001,144.74930000
33.94198001,142.98530000
33.98198001,142.98530000
34.02198001,142.98530000
34.06198001,141.21520000
34.10198001,139.45130000
34.14198001,137.68730000
34.18198001,135.92330000
34.22198001,135.92330000
34.26198001,135.92330000
34.30198001,134.15940000
34.34198001,132.39540000
34.38198001,130.63140000
34.42198001,128.86740000
34.46198001,128.86740000
34.50198001,127.10350000
34.54198001,125.33950000
34.58198001,123.57550000
34.62198001,121.81160000
34.66198001,121.81160000
34.70198001,120.04760000
34.74198001,118.28360000
34.78198001,116.51970000
34.82198001,114.75570000
34.86198001,114.75570000
34.90198000,112.98560000
34.94198000,111.22170000
34.98198000,109.45770000
35.02198000,107.69370000
35.06198000,107.69370000
35.10198000,105.92970000
35.14198000,104.16580000
35.18198000,100.63780000
35.22198000,100.63780000
35.26198000,98.87386000
35.30198000,97.10989000
35.34198000,95.34592000
35.38198000,93.58195000
35.42198000,91.81799000
35.46198000,90.05402000
35.50198000,88.29005000
35.54198000,86.52608000
35.58198000,86.52608000
35.62198000,84.75600000
35.66198000,81.22807000
35.70198000,81.22807000
35.74198000,79.46410000
35.78198000,77.70013000
35.82198000,75.93616000
35.86198000,74.17219000
35.90198000,72.40822000
35.94198000,72.40822000
35.98198000,70.64425000
36.02198000,67.11631000
36.06198000,65.35233000
36.10198000,63.58836000
36.14198000,61.82440000
36.18198000,60.06042000
36.22198000,58.29646000
36.26198000,56.52638000
36.30198000,56.52638000
36.34198000,52.99844000
36.38198000,51.23447000
36.42198000,49.47050000
36.46198000,49.47050000
36.50198000,45.94257000
36.54197999,44.17860000
36.58197999,42.41463000
36.62197999,40.65065000
36.66197999,38.88668000
36.70197999,37.12271000
36.74197999,35.35874000
36.78197999,33.59477000
36.82197999,30.06684000
36.86197999,30.06684000
36.90197999,28.29676000
36.94197999,26.53279000
36.98197999,23.00485000
37.02197999,23.00485000
37.06197999,21.24088000
37.10197999,19.47691000
37.14197999,15.94897000
37.18197999,15.94897000
37.22197999,14.18500000
37.26197999,10.65706000
37.30197999,8.89309300
37.34197999,7.12912400
37.38197999,5.36515400
37.42197999,3.60118400
37.46197999,1.83721400
37.50197999,0.07324442
37.54197999,-3.45469500
37.58197999,-5.21866500
37.62197999,-5.21866500
37.66197999,-6.98263500
37.70197999,-10.51057000
37.74197999,-12.27454000
37.78197999,-12.27454000
37.82197999,-14.03851000
37.86197999,-17.56645000
37.90197999,-19.33042000
37.94197999,-21.09439000
37.98197999,-22.85836000
38.02197999,-24.62233000
38.06197999,-26.39241000
38.10197999,-28.15638000
38.14197999,-28.15638000
38.18197998,-31.68431000
38.22197998,-33.44828000
38.26197998,-35.21225000
38.30197998,-36.97623000
38.34197998,-40.50417000
38.38197998,-40.50417000
38.42197998,-42.26814000
38.46197998,-45.79607000
38.50197998,-47.56004000
38.54197998,-47.56004000
38.58197998,-49.32401000
38.62197998,-52.85195000
38.66197998,-54.62203000
38.70197998,-54.62203000
38.74197998,-56.38600000
38.78197998,-59.91394000
38.82197998,-61.67791000
38.86197998,-61.67791000
38.90197998,-63.44188000
38.94197998,-66.96982000
38.98197998,-68.73379000
39.02197998,-68.73379000
39.06197998,-70.49776000
39.10197998,-74.02570000
39.14197998,-74.02570000
39.18197998,-75.78967000
39.22197998,-77.55363000
39.26197998,-81.08157000
39.30197998,-81.08157000
39.34197998,-82.85165000
39.38197998,-84.61562000
39.42197998,-86.37959000
39.46197998,-88.14356000
39.50197998,-89.90753000
39.54197998,-91.67150000
39.58197998,-93.43547000
39.62197998,-95.19944000
39.66197998,-96.96341000
39.70197998,-96.96341000
39.74197998,-98.72738000
39.78197998,-102.25530000
39.82197997,-104.01930000
39.86197997,-104.01930000
39.90197997,-105.78330000
39.94197997,-107.54720000
39.98197997,-109.31120000
40.02197997,-111.08130000
40.06197997,-111.08130000
40.10197997,-112.84520000
40.14197997,-116.37320000
40.18197997,-116.37320000
40.22197997,-118.13720000
40.26197997,-118.13720000
40.30197997,-119.90110000
40.34197997,-123.42910000
40.38197997,-123.42910000
40.42197997,-125.19300000
40.46197997,-125.19300000
40.50197997,-126.95700000
40.54197997,-128.72100000
40.58197997,-130.48490000
40.62197997,-132.24890000
40.66197997,-132.24890000
40.70197997,-134.01290000
40.74197997,-135.77680000
40.78197997,-137.54080000
40.82197997,-139.31090000
40.86197997,-139.31090000
40.90197997,-141.07490000
40.94197997,-141.07490000
40.98197997,-142.83880000
41.02197997,-144.60280000
41.06197997,-146.36680000
41.10197997,-146.36680000
41.14197997,-148.13070000
41.18197997,-148.13070000
41.22197997,-149.89470000
41.26197997,-151.65870000
41.30197997,-151.65870000
41.34197997,-153.42260000
41.38197997,-153.42260000
41.42197997,-155.18660000
41.46197996,-155.18660000
41.50197996,-158.71460000
41.54197996,-158.71460000
41.58197996,-160.47850000
41.62197996,-160.47850000
41.66197996,-160.47850000
41.70197996,-162.24250000
41.74197996,-164.00650000
41.78197996,-162.24250000
41.82197996,-165.77040000
41.86197996,-167.54050000
41.90197996,-167.54050000
41.94197996,-167.54050000
41.98197996,-167.54050000
42.02197996,-169.30450000
42.06197996,-169.30450000
42.10197996,-169.30450000
42.14197996,-171.06850000
42.18197996,-172.83240000
42.22197996,-172.83240000
42.26197996,-174.59640000
42.30197996,-174.59640000
42.34197996,-174.59640000
42.38197996,-174.59640000
42.42197996,-174.59640000
42.46197996,-176.36040000
42.50197996,-178.12430000
42.54197996,-178.12430000
42.58197996,-179.88830000
42.62197996,-179.88830000
42.66197996,-179.88830000
42.70197996,-181.65230000
42.74197996,-181.65230000
42.78197996,-181.65230000
42.82197996,-181.65230000
42.86197996,-181.65230000
42.90197996,-183.41620000
42.94197996,-181.65230000
42.98197996,-183.41620000
43.02197996,-183.41620000
43.06197996,-183.41620000
43.10197995,-183.41620000
43.14197995,-183.41620000
43.18197995,-183.41620000
43.22197995,-183.41620000
43.26197995,-185.18020000
43.30197995,-185.18020000
43.34197995,-185.18020000
43.38197995,-186.94420000
43.42197995,-186.94420000
43.46197995,-186.94420000
43.50197995,-186.94420000
43.54197995,-186.94420000
43.58197995,-186.94420000
43.62197995,-186.94420000
43.66197995,-186.94420000
43.70197995,-186.94420000
43.74197995,-186.94420000
43.78197995,-186.94420000
43.82197995,-186.94420000
43.86197995,-186.94420000
43.90197995,-186.94420000
43.94197995,-186.94420000
43.98197995,-186.94420000
44.02197995,-186.94420000
44.06197995,-186.94420000
44.10197995,-186.94420000
44.14197995,-186.94420000
44.18197995,-186.94420000
44.22197995,-186.94420000
44.26197995,-185.18020000
44.30197995,-183.41620000
44.34197995,-183.41620000
44.38197995,-183.41620000
44.42197995,-183.41620000
44.46197995,-183.41620000
44.50197995,-183.41620000
44.54197995,-183.41620000
44.58197995,-181.65230000
44.62197995,-181.65230000
44.66197995,-181.65230000
44.70197995,-181.65230000
44.74197994,-181.65230000
44.78197994,-181.65230000
44.82197994,-181.65230000
44.86197994,-179.88830000
44.90197994,-179.88830000
44.94197994,-179.88830000
44.98197994,-178.12430000
45.02197994,-176.36040000
45.06197994,-176.36040000
45.10197994,-176.36040000
45.14197994,-174.59640000
45.18197994,-174.59640000
45.22197994,-174.59640000
45.26197994,-174.59640000
45.30197994,-174.59640000
45.34197994,-172.83240000
45.38197994,-172.83240000
45.42197994,-171.06850000
45.46197994,-169.30450000
45.50197994,-169.30450000
45.54197994,-167.54050000
45.58197994,-167.54050000
45.62197994,-167.54050000
45.66197994,-167.54050000
45.70197994,-165.77040000
45.74197994,-165.77040000
45.78197994,-162.24250000
45.82197994,-162.24250000
45.86197994,-160.47850000
45.90197994,-160.47850000
45.94197994,-158.71460000
45.98197994,-158.71460000
46.02197994,-158.71460000
46.06197994,-155.18660000
46.10197994,-155.18660000
46.14197994,-153.42260000
46.18197994,-153.42260000
46.22197994,-153.42260000
46.26197994,-151.65870000
46.30197994,-149.89470000
46.34197994,-148.13070000
46.38197994,-148.13070000
46.42197993,-146.36680000
46.46197993,-146.36680000
46.50197993,-144.60280000
46.54197993,-142.83880000
46.58197993,-142.83880000
46.62197993,-141.07490000
46.66197993,-139.31090000
46.70197993,-137.54080000
46.74197993,-137.54080000
46.78197993,-135.77680000
46.82197993,-134.01290000
46.86197993,-132.24890000
46.90197993,-132.24890000
46.94197993,-132.24890000
46.98197993,-130.48490000
47.02197993,-128.72100000
47.06197993,-125.19300000
47.10197993,-125.19300000
47.14197993,-125.19300000
47.18197993,-121.66510000
47.22197993,-119.90110000
47.26197993,-118.13720000
47.30197993,-118.13720000
47.34197993,-116.37320000
47.38197993,-116.37320000
47.42197993,-112.84520000
47.46197993,-111.08130000
47.50197993,-111.08130000
47.54197993,-109.31120000
47.58197993,-107.54720000
47.62197993,-105.78330000
47.66197993,-104.01930000
47.70197993,-104.01930000
47.74197993,-102.25530000
47.78197993,-98.72738000
47.82197993,-98.72738000
47.86197993,-96.96341000
47.90197993,-95.19944000
47.94197993,-93.43547000
47.98197993,-91.67150000
48.02197993,-89.90753000
48.06197992,-88.14356000
48.10197992,-88.14356000
48.14197992,-84.61562000
48.18197992,-82.85165000
48.22197992,-82.85165000
48.26197992,-81.08157000
48.30197992,-79.31760000
48.34197992,-77.55363000
48.38197992,-74.02570000
48.42197992,-74.02570000
48.46197992,-74.02570000
48.50197992,-70.49776000
48.54197992,-68.73379000
48.58197992,-66.96982000
48.62197992,-63.44188000
48.66197992,-63.44188000
48.70197992,-61.67791000
48.74197992,-59.91394000
48.78197992,-58.14997000
48.82197992,-56.38600000
48.86197992,-54.62203000
48.90197992,-52.85195000
48.94197992,-49.32401000
48.98197992,-47.56004000
49.02197992,-47.56004000
49.06197992,-45.79607000
49.10197992,-42.26814000
49.14197992,-40.50417000
49.18197992,-40.50417000
49.22197992,-38.74020000
49.26197992,-35.21225000
49.30197992,-33.44828000
49.34197992,-33.44828000
49.38197992,-29.92035000
49.42197992,-28.15638000
49.46197992,-26.39241000
49.50197992,-26.39241000
49.54197992,-22.85836000
49.58197992,-21.09439000
49.62197992,-19.33042000
49.66197992,-17.56645000
49.70197991,-15.80248000
49.74197991,-14.03851000
49.78197991,-12.27454000
49.82197991,-10.51057000
49.86197991,-6.98263500
49.90197991,-6.98263500
49.94197991,-5.21866500
49.98197991,-3.45469500
50.02197991,0.07324442
50.06197991,1.83721400
50.10197991,3.60118400
50.14197991,5.36515400
50.18197991,7.12912400
50.22197991,8.89309300
50.26197991,10.65706000
50.30197991,12.42103000
50.34197991,15.94897000
50.38197991,15.94897000
50.42197991,17.71294000
50.46197991,19.47691000
50.50197991,21.24088000
50.54197991,23.00485000
50.58197991,24.76882000
50.62197991,28.29676000
50.66197991,30.06684000
50.70197991,30.06684000
50.74197991,31.83080000
50.78197991,35.35874000
50.82197991,37.12271000
50.86197991,37.12271000
50.90197991,38.88668000
50.94197991,42.41463000
50.98197991,44.17860000
51.02197991,44.17860000
51.06197991,47.70654000
51.10197991,49.47050000
51.14197991,51.23447000
51.18197991,52.99844000
51.22197991,52.99844000
51.26197991,56.52638000
51.30197991,58.29646000
51.34197990,58.29646000
51.38197990,61.82440000
51.42197990,63.58836000
51.46197990,65.35233000
51.50197990,67.11631000
51.54197990,67.11631000
51.58197990,70.64425000
51.62197990,72.40822000
51.66197990,72.40822000
51.70197990,74.17219000
51.74197990,77.70013000
51.78197990,79.46410000
51.82197990,79.46410000
51.86197990,81.22807000
51.90197990,84.75600000
51.94197990,84.75600000
51.98197990,86.52608000
52.02197990,88.29005000
52.06197990,90.05402000
52.10197990,91.81799000
52.14197990,93.58195000
52.18197990,95.34592000
52.22197990,97.10989000
52.26197990,98.87386000
52.30197990,100.63780000
52.34197990,100.63780000
52.38197990,102.40180000
52.42197990,105.92970000
52.46197990,105.92970000
52.50197990,107.69370000
52.54197990,109.45770000
52.58197990,109.45770000
52.62197990,112.98560000
52.66197990,112.98560000
52.70197990,114.75570000
52.74197990,116.51970000
52.78197990,118.28360000
52.82197990,120.04760000
52.86197990,120.04760000
52.90197990,121.81160000
52.94197990,123.57550000
52.98197989,127.10350000
53.02197989,127.10350000
53.06197989,128.86740000
53.10197989,128.86740000
53.14197989,130.63140000
53.18197989,130.63140000
53.22197989,134.15940000
53.26197989,135.92330000
53.30197989,135.92330000
53.34197989,137.68730000
53.38197989,137.68730000
53.42197989,139.45130000
53.46197989,141.21520000
53.50197989,142.98530000
53.54197989,142.98530000
53.58197989,142.98530000
53.62197989,144.74930000
53.66197989,146.51330000
53.70197989,148.27720000
53.74197989,148.27720000
53.78197989,150.04120000
53.82197989,150.04120000
53.86197989,151.80520000
53.90197989,153.56910000
53.94197989,153.56910000
53.98197989,155.33310000
54.02197989,155.33310000
54.06197989,157.09710000
54.10197989,157.09710000
54.14197989,158.86110000
54.18197989,158.86110000
54.22197989,160.62500000
54.26197989,162.38900000
54.30197989,164.15300000
54.34197989,162.38900000
54.38197989,164.15300000
54.42197989,164.15300000
54.46197989,165.91690000
54.50197989,165.91690000
54.54197989,167.68090000
54.58197989,169.44490000
54.62197988,169.44490000
54.66197988,169.44490000
54.70197988,171.21490000
54.74197988,171.21490000
54.78197988,171.21490000
54.82197988,172.97890000
54.86197988,172.97890000
54.90197988,172.97890000
54.94197988,174.74290000
54.98197988,174.74290000
55.02197988,176.50690000
55.06197988,176.50690000
55.10197988,176.50690000
55.14197988,176.50690000
55.18197988,178.27080000
55.22197988,178.27080000
55.26197988,178.27080000
55.30197988,178.27080000
55.34197988,180.03480000
55.38197988,180.03480000
55.42197988,180.03480000
55.46197988,180.03480000
55.50197988,180.03480000
55.54197988,181.79880000
55.58197988,183.56270000
55.62197988,183.56270000
55.66197988,183.56270000
55.70197988,183.56270000
55.74197988,183.56270000
55.78197988,183.56270000
55.82197988,183.56270000
55.86197988,183.56270000
55.90197988,183.56270000
55.94197988,185.32670000
55.98197988,183.56270000
56.02197988,185.32670000
56.06197988,185.32670000
56.10197988,185.32670000
56.14197988,185.32670000
56.18197988,185.32670000
56.22197988,185.32670000
56.26197987,185.32670000
56.30197987,185.32670000
56.34197987,185.32670000
56.38197987,185.32670000
56.42197987,185.32670000
56.46197987,185.32670000
56.50197987,183.56270000
56.54197987,185.32670000
56.58197987,185.32670000
56.62197987,183.56270000
56.66197987,183.56270000
56.70197987,183.56270000
56.74197987,183.56270000
56.78197987,183.56270000
56.82197987,183.56270000
56.86197987,183.56270000
56.90197987,183.56270000
56.94197987,183.56270000
56.98197987,181.79880000
57.02197987,180.03480000
57.06197987,180.03480000
57.10197987,180.03480000
57.14197987,180.03480000
57.18197987,178.27080000
57.22197987,178.27080000
57.26197987,178.27080000
57.30197987,178.27080000
57.34197987,178.27080000
57.38197987,178.27080000
57.42197987,176.50690000
57.46197987,176.50690000
57.50197987,176.50690000
57.54197987,176.50690000
57.58197987,174.74290000
57.62197987,174.74290000
57.66197987,172.97890000
57.70197987,172.97890000
57.74197987,171.21490000
57.78197987,171.21490000
57.82197987,171.21490000
57.86197987,171.21490000
57.90197986,169.44490000
57.94197986,169.44490000
57.98197986,167.68090000
58.02197986,165.91690000
58.06197986,165.91690000
58.10197986,164.15300000
58.14197986,164.15300000
58.18197986,164.15300000
58.22197986,164.15300000
58.26197986,162.38900000
58.30197986,160.62500000
58.34197986,160.62500000
58.38197986,158.86110000
58.42197986,157.09710000
58.46197986,157.09710000
58.50197986,157.09710000
58.54197986,155.33310000
58.58197986,155.33310000
58.62197986,151.80520000
58.66197986,150.04120000
58.70197986,150.04120000
58.74197986,150.04120000
58.78197986,150.04120000
58.82197986,148.27720000
58.86197986,146.51330000
58.90197986,146.51330000
58.94197986,142.98530000
58.98197986,142.98530000
59.02197986,142.98530000
59.06197986,141.21520000
59.10197986,141.21520000
59.14197986,137.68730000
59.18197986,137.68730000
59.22197986,135.92330000
59.26197986,135.92330000
59.30197986,134.15940000
59.34197986,132.39540000
59.38197986,130.63140000
59.42197986,128.86740000
59.46197986,128.86740000
59.50197986,127.10350000
59.54197986,125.33950000
59.58197985,123.57550000
59.62197985,121.81160000
59.66197985,121.81160000
59.70197985,120.04760000
59.74197985,118.28360000
59.78197985,116.51970000
59.82197985,114.75570000
59.86197985,114.75570000
59.90197985,112.98560000
59.94197985,111.22170000
59.98197985,109.45770000
60.02197985,107.69370000
60.06197985,107.69370000
60.10197985,104.16580000
60.14197985,104.16580000
60.18197985,102.40180000
60.22197985,100.63780000
60.26197985,98.87386000
60.30197985,95.34592000
60.34197985,95.34592000
60.38197985,93.58195000
60.42197985,91.81799000
60.46197985,90.05402000
60.50197985,88.29005000
60.54197985,86.52608000
60.58197985,86.52608000
60.62197985,84.75600000
60.66197985,81.22807000
60.70197985,79.46410000
60.74197985,79.46410000
60.78197985,77.70013000
60.82197985,75.93616000
60.86197985,74.17219000
60.90197985,72.40822000
60.94197985,70.64425000
60.98197985,68.88028000
61.02197985,67.11631000
61.06197985,65.35233000
61.10197985,63.58836000
61.14197985,61.82440000
61.18197985,60.06042000
61.22197984,58.29646000
61.26197984,56.52638000
61.30197984,54.76241000
61.34197984,52.99844000
61.38197984,51.23447000
61.42197984,49.47050000
61.46197984,47.70654000
61.50197984,45.94257000
61.54197984,44.17860000
61.58197984,42.41463000
61.62197984,40.65065000
61.66197984,37.12271000
61.70197984,37.12271000
61.74197984,35.35874000
61.78197984,33.59477000
61.82197984,31.83080000
61.86197984,30.06684000
61.90197984,28.29676000
61.94197984,24.76882000
61.98197984,23.00485000
62.02197984,23.00485000
62.06197984,19.47691000
62.10197984,17.71294000
62.14197984,15.94897000
62.18197984,15.94897000
62.22197984,14.18500000
62.26197984,10.65706000
62.30197984,8.89309300
62.34197984,8.89309300
62.38197984,5.36515400
62.42197984,3.60118400
62.46197984,1.83721400
62.50197984,0.07324442
62.54197984,-1.69072500
62.58197984,-5.21866500
62.62197984,-5.21866500
62.66197984,-6.98263500
62.70197984,-10.51057000
62.74197984,-12.27454000
62.78197984,-12.27454000
62.82197984,-15.80248000
62.86197983,-17.56645000
62.90197983,-19.33042000
62.94197983,-21.09439000
62.98197983,-22.85836000
63.02197983,-24.62233000
63.06197983,-26.39241000
63.10197983,-28.15638000
63.14197983,-31.68431000
63.18197983,-31.68431000
63.22197983,-33.44828000
63.26197983,-35.21225000
63.30197983,-36.97623000
63.34197983,-38.74020000
63.38197983,-40.50417000
63.42197983,-44.03210000
63.46197983,-45.79607000
63.50197983,-47.56004000
63.54197983,-47.56004000
63.58197983,-49.32401000
63.62197983,-52.85195000
63.66197983,-54.62203000
63.70197983,-54.62203000
63.74197983,-58.14997000
63.78197983,-59.91394000
63.82197983,-61.67791000
63.86197983,-61.67791000
63.90197983,-63.44188000
63.94197983,-66.96982000
63.98197983,-68.73379000
64.02197983,-68.73379000
64.06197983,-70.49776000
64.10197983,-74.02570000
64.14197983,-75.78967000
64.18197983,-75.78967000
64.22197983,-77.55363000
64.26197983,-79.31760000
64.30197983,-81.08157000
64.34197983,-82.85165000
64.38197983,-84.61562000
64.42197983,-86.37959000
64.46197983,-88.14356000
64.50197982,-89.90753000
64.54197982,-91.67150000
64.58197982,-93.43547000
64.62197982,-95.19944000
64.66197982,-96.96341000
64.70197982,-96.96341000
64.74197982,-98.72738000
64.78197982,-100.49130000
64.82197982,-104.01930000
64.86197982,-104.01930000
64.90197982,-105.78330000
64.94197982,-107.54720000
64.98197982,-109.31120000
65.02197982,-109.31120000
65.06197982,-111.08130000
65.10197982,-112.84520000
65.14197982,-114.60920000
65.18197982,-116.37320000
65.22197982,-118.13720000
65.26197982,-118.13720000
65.30197982,-119.90110000
65.34197982,-121.66510000
65.38197982,-123.42910000
65.42197982,-125.19300000
65.46197982,-126.95700000
65.50197982,-126.95700000
65.54197982,-128.72100000
65.58197982,-130.48490000
65.62197982,-132.24890000
65.66197982,-132.24890000
65.70197982,-134.01290000
65.74197982,-135.77680000
65.78197982,-137.54080000
65.82197982,-139.31090000
65.86197982,-139.31090000
65.90197982,-141.07490000
65.94197982,-142.83880000
65.98197982,-142.83880000
66.02197982,-144.60280000
66.06197982,-146.36680000
66.10197982,-146.36680000
66.14197981,-148.13070000
66.18197981,-148.13070000
66.22197981,-148.13070000
66.26197981,-151.65870000
66.30197981,-153.42260000
66.34197981,-153.42260000
66.38197981,-153.42260000
66.42197981,-153.42260000
66.46197981,-155.18660000
66.50197981,-158.71460000
66.54197981,-158.71460000
66.58197981,-160.47850000
66.62197981,-160.47850000
66.66197981,-162.24250000
66.70197981,-162.24250000
66.74197981,-162.24250000
66.78197981,-164.00650000
66.82197981,-165.77040000
66.86197981,-165.77040000
66.90197981,-167.54050000
66.94197981,-167.54050000
66.98197981,-167.54050000
67.02197981,-167.54050000
67.06197981,-169.30450000
67.10197981,-171.06850000
67.14197981,-171.06850000
67.18197981,-172.83240000
67.22197981,-172.83240000
67.26197981,-174.59640000
67.30197981,-174.59640000
67.34197981,-174.59640000
67.38197981,-174.59640000
67.42197981,-176.36040000
67.46197981,-176.36040000
67.50197981,-176.36040000
67.54197981,-178.12430000
67.58197981,-178.12430000
67.62197981,-179.88830000
67.66197981,-179.88830000
67.70197981,-181.65230000
67.74197981,-181.65230000
67.78197980,-181.65230000
67.82197980,-181.65230000
67.86197980,-181.65230000
67.90197980,-181.65230000
67.94197980,-181.65230000
67.98197980,-183.41620000
68.02197980,-183.41620000
68.06197980,-183.41620000
68.10197980,-185.18020000
68.14197980,-183.41620000
68.18197980,-185.18020000
68.22197980,-185.18020000
68.26197980,-185.18020000
68.30197980,-185.18020000
68.34197980,-186.94420000
68.38197980,-186.94420000
68.42197980,-186.94420000
68.46197980,-186.94420000
68.50197980,-186.94420000
68.54197980,-186.94420000
68.58197980,-186.94420000
68.62197980,-188.70810000
68.66197980,-186.94420000
68.70197980,-186.94420000
68.74197980,-186.94420000
68.78197980,-186.94420000
68.82197980,-186.94420000
68.86197980,-186.94420000
68.90197980,-186.94420000
68.94197980,-186.94420000
68.98197980,-186.94420000
69.02197980,-186.94420000
69.06197980,-186.94420000
69.10197980,-186.94420000
69.14197980,-186.94420000
69.18197980,-186.94420000
69.22197980,-185.18020000
69.26197980,-185.18020000
69.30197980,-185.18020000
69.34197980,-183.41620000
69.38197980,-183.41620000
69.42197979,-183.41620000
69.46197979,-183.41620000
69.50197979,-183.41620000
69.54197979,-183.41620000
69.58197979,-181.65230000
69.62197979,-181.65230000
69.66197979,-181.65230000
69.70197979,-181.65230000
69.74197979,-181.65230000
69.78197979,-181.65230000
69.82197979,-181.65230000
69.86197979,-179.88830000
69.90197979,-179.88830000
69.94197979,-178.12430000
69.98197979,-176.36040000
70.02197979,-176.36040000
70.06197979,-176.36040000
70.10197979,-176.36040000
70.14197979,-174.59640000
70.18197979,-174.59640000
70.22197979,-174.59640000
70.26197979,-174.59640000
70.30197979,-172.83240000
70.34197979,-172.83240000
70.38197979,-172.83240000
70.42197979,-171.06850000
70.46197979,-169.30450000
70.50197979,-169.30450000
70.54197979,-167.54050000
70.58197979,-167.54050000
70.62197979,-167.54050000
70.66197979,-165.77040000
70.70197979,-165.77040000
70.74197979,-164.00650000
70.78197979,-162.24250000
70.82197979,-162.24250000
70.86197979,-162.24250000
70.90197979,-160.47850000
70.94197979,-160.47850000
70.98197979,-160.47850000
71.02197979,-158.71460000
71.06197979,-158.71460000
71.10197978,-155.18660000
71.14197978,-155.18660000
71.18197978,-153.42260000
71.22197978,-153.42260000
71.26197978,-151.65870000
71.30197978,-151.65870000
71.34197978,-148.13070000
71.38197978,-148.13070000
71.42197978,-148.13070000
71.46197978,-146.36680000
71.50197978,-144.60280000
71.54197978,-144.60280000
71.58197978,-141.07490000
71.62197978,-141.07490000
71.66197978,-141.07490000
71.70197978,-139.31090000
71.74197978,-137.54080000
71.78197978,-135.77680000
71.82197978,-134.01290000
71.86197978,-134.01290000
71.90197978,-132.24890000
71.94197978,-132.24890000
71.98197978,-130.48490000
72.02197978,-128.72100000
72.06197978,-126.95700000
72.10197978,-125.19300000
72.14197978,-125.19300000
72.18197978,-121.66510000
72.22197978,-119.90110000
72.26197978,-118.13720000
72.30197978,-118.13720000
72.34197978,-116.37320000
72.38197978,-116.37320000
72.42197978,-112.84520000
72.46197978,-112.84520000
72.50197978,-111.08130000
72.54197978,-109.31120000
72.58197978,-107.54720000
72.62197978,-105.78330000
72.66197978,-104.01930000
72.70197978,-104.01930000
72.74197977,-102.25530000
72.78197977,-98.72738000
72.82197977,-96.96341000
72.86197977,-96.96341000
72.90197977,-95.19944000
72.94197977,-93.43547000
72.98197977,-91.67150000
73.02197977,-89.90753000
73.06197977,-88.14356000
73.10197977,-88.14356000
73.14197977,-84.61562000
73.18197977,-82.85165000
73.22197977,-82.85165000
73.26197977,-81.08157000
73.30197977,-77.55363000
73.34197977,-75.78967000
73.38197977,-75.78967000
73.42197977,-74.02570000
73.46197977,-72.26173000
73.50197977,-68.73379000
73.54197977,-68.73379000
73.58197977,-66.96982000
73.62197977,-63.44188000
73.66197977,-61.67791000
73.70197977,-61.67791000
73.74197977,-59.91394000
73.78197977,-58.14997000
73.82197977,-56.38600000
73.86197977,-54.62203000
73.90197977,-52.85195000
73.94197977,-49.32401000
73.98197977,-49.32401000
74.02197977,-47.56004000
74.06197977,-45.79607000
74.10197977,-42.26814000
74.14197977,-42.26814000
74.18197977,-40.50417000
74.22197977,-36.97623000
74.26197977,-35.21225000
74.30197977,-33.44828000
74.34197977,-33.44828000
74.38197976,-29.92035000
74.42197976,-28.15638000
74.46197976,-26.39241000
74.50197976,-26.39241000
74.54197976,-22.85836000
74.58197976,-21.09439000
74.62197976,-19.33042000
74.66197976,-17.56645000
74.70197976,-15.80248000
74.74197976,-14.03851000
74.78197976,-12.27454000
74.82197976,-10.51057000
74.86197976,-6.98263500
74.90197976,-5.21866500
74.94197976,-5.21866500
74.98197976,-3.45469500
75.02197976,0.07324442
75.06197976,1.83721400
75.10197976,1.83721400
75.14197976,3.60118400
75.18197976,7.12912400
75.22197976,8.89309300
75.26197976,10.65706000
75.30197976,12.42103000
75.34197976,14.18500000
75.38197976,15.94897000
75.42197976,17.71294000
75.46197976,21.24088000
75.50197976,23.00485000
75.54197976,23.00485000
75.58197976,24.76882000
75.62197976,28.29676000
75.66197976,30.06684000
75.70197976,30.06684000
75.74197976,31.83080000
75.78197976,35.35874000
75.82197976,37.12271000
75.86197976,37.12271000
75.90197976,38.88668000
75.94197976,42.41463000
75.98197976,44.17860000
76.02197975,44.17860000
76.06197975,47.70654000
76.10197975,49.47050000
76.14197975,51.23447000
76.18197975,52.99844000
76.22197975,54.76241000
76.26197975,56.52638000
76.30197975,58.29646000
76.34197975,58.29646000
76.38197975,61.82440000
76.42197975,63.58836000
76.46197975,65.35233000
76.50197975,67.11631000
76.54197975,68.88028000
76.58197975,70.64425000
76.62197975,72.40822000
76.66197975,74.17219000
76.70197975,74.17219000
76.74197975,77.70013000
76.78197975,79.46410000
76.82197975,79.46410000
76.86197975,81.22807000
76.90197975,84.75600000
76.94197975,86.52608000
76.98197975,86.52608000
77.02197975,88.29005000
77.06197975,91.81799000
77.10197975,91.81799000
77.14197975,93.58195000
77.18197975,93.58195000
77.22197975,95.34592000
77.26197975,98.87386000
77.30197975,100.63780000
77.34197975,100.63780000
77.38197975,104.16580000
77.42197975,105.92970000
77.46197975,105.92970000
77.50197975,107.69370000
77.54197975,109.45770000
77.58197975,111.22170000
77.62197975,112.98560000
77.66197974,114.75570000
77.70197974,114.75570000
77.74197974,116.51970000
77.78197974,118.28360000
77.82197974,120.04760000
77.86197974,121.81160000
77.90197974,121.81160000
77.94197974,123.57550000
77.98197974,123.57550000
78.02197974,127.10350000
78.06197974,128.86740000
78.10197974,128.86740000
78.14197974,130.63140000
78.18197974,132.39540000
78.22197974,134.15940000
78.26197974,134.15940000
78.30197974,135.92330000
78.34197974,135.92330000
78.38197974,137.68730000
78.42197974,141.21520000
78.46197974,141.21520000
78.50197974,141.21520000
78.54197974,142.98530000
78.58197974,144.74930000
78.62197974,144.74930000
78.66197974,146.51330000
78.70197974,148.27720000
78.74197974,148.27720000
78.78197974,150.04120000
78.82197974,150.04120000
78.86197974,151.80520000
78.90197974,151.80520000
78.94197974,155.33310000
78.98197974,155.33310000
79.02197974,155.33310000
79.06197974,157.09710000
79.10197974,157.09710000
79.14197974,158.86110000
79.18197974,160.62500000
79.22197974,162.38900000
79.26197974,162.38900000
79.30197973,162.38900000
79.34197973,164.15300000
79.38197973,164.15300000
79.42197973,164.15300000
79.46197973,164.15300000
79.50197973,167.68090000
79.54197973,165.91690000
79.58197973,169.44490000
79.62197973,169.44490000
79.66197973,169.44490000
79.70197973,171.21490000
79.74197973,171.21490000
79.78197973,171.21490000
79.82197973,171.21490000
79.86197973,172.97890000
79.90197973,172.97890000
79.94197973,174.74290000
79.98197973,174.74290000
80.02197973,176.50690000
80.06197973,176.50690000
80.10197973,178.27080000
80.14197973,178.27080000
80.18197973,178.27080000
80.22197973,178.27080000
80.26197973,178.27080000
80.30197973,178.27080000
80.34197973,178.27080000
80.38197973,180.03480000
80.42197973,180.03480000
80.46197973,181.79880000
80.50197973,180.03480000
80.54197973,180.03480000
80.58197973,183.56270000
80.62197973,183.56270000
80.66197973,183.56270000
80.70197973,183.56270000
80.74197973,183.56270000
80.78197973,183.56270000
80.82197973,183.56270000
80.86197973,183.56270000
80.90197973,183.56270000
80.94197972,183.56270000
80.98197972,185.32670000
81.02197972,185.32670000
81.06197972,185.32670000
81.10197972,185.32670000
81.14197972,185.32670000
81.18197972,185.32670000
81.22197972,185.32670000
81.26197972,185.32670000
81.30197972,185.32670000
81.34197972,185.32670000
81.38197972,185.32670000
81.42197972,185.32670000
81.46197972,185.32670000
81.50197972,185.32670000
81.54197972,185.32670000
81.58197972,183.56270000
81.62197972,183.56270000
81.66197972,183.56270000
81.70197972,185.32670000
81.74197972,183.56270000
81.78197972,183.56270000
81.82197972,183.56270000
81.86197972,183.56270000
81.90197972,181.79880000
81.94197972,183.56270000
81.98197972,181.79880000
82.02197972,180.03480000
82.06197972,180.03480000
82.10197972,180.03480000
82.14197972,180.03480000
82.18197972,180.03480000
82.22197972,178.27080000
82.26197972,178.27080000
82.30197972,178.27080000
82.34197972,178.27080000
82.38197972,176.50690000
82.42197972,176.50690000
82.46197972,176.50690000
82.50197972,176.50690000
82.54197972,174.74290000
82.58197972,174.74290000
82.62197971,174.74290000
82.66197971,172.97890000
82.70197971,172.97890000
82.74197971,172.97890000
82.78197971,171.21490000
82.82197971,171.21490000
82.86197971,171.21490000
82.90197971,169.44490000
82.94197971,169.44490000
82.98197971,167.68090000
83.02197971,167.68090000
83.06197971,165.91690000
83.10197971,165.91690000
83.14197971,164.15300000
83.18197971,164.15300000
83.22197971,162.38900000
83.26197971,162.38900000
83.30197971,162.38900000
83.34197971,158.86110000
83.38197971,157.09710000
83.42197971,157.09710000
83.46197971,157.09710000
83.50197971,157.09710000
83.54197971,155.33310000
83.58197971,155.33310000
83.62197971,151.80520000
83.66197971,151.80520000
83.70197971,150.04120000
83.74197971,150.04120000
83.78197971,150.04120000
83.82197971,148.27720000
83.86197971,146.51330000
83.90197971,146.51330000
83.94197971,142.98530000
83.98197971,142.98530000
84.02197971,142.98530000
84.06197971,141.21520000
84.10197971,141.21520000
84.14197971,137.68730000
84.18197971,135.92330000
84.22197971,135.92330000
84.26197970,134.15940000
84.30197970,134.15940000
84.34197970,130.63140000
84.38197970,130.63140000
84.42197970,128.86740000
84.46197970,128.86740000
84.50197970,127.10350000
84.54197970,125.33950000
84.58197970,123.57550000
84.62197970,121.81160000
84.66197970,121.81160000
84.70197970,120.04760000
84.74197970,118.28360000
84.78197970,116.51970000
84.82197970,114.75570000
84.86197970,114.75570000
84.90197970,112.98560000
84.94197970,109.45770000
84.98197970,109.45770000
85.02197970,107.69370000
85.06197970,107.69370000
85.10197970,104.16580000
85.14197970,102.40180000
85.18197970,102.40180000
85.22197970,100.63780000
85.26197970,98.87386000
85.30197970,97.10989000
85.34197970,93.58195000
85.38197970,93.58195000
85.42197970,91.81799000
85.46197970,91.81799000
85.50197970,88.29005000
85.54197970,86.52608000
85.58197970,86.52608000
85.62197970,84.75600000
85.66197970,81.22807000
85.70197970,81.22807000
85.74197970,79.46410000
85.78197970,77.70013000
85.82197970,75.93616000
85.86197970,74.17219000
85.90197969,72.40822000
85.94197969,70.64425000
85.98197969,70.64425000
86.02197969,67.11631000
86.06197969,65.35233000
86.10197969,63.58836000
86.14197969,61.82440000
86.18197969,58.29646000
86.22197969,60.06042000
86.26197969,56.52638000
86.30197969,54.76241000
86.34197969,52.99844000
86.38197969,51.23447000
86.42197969,49.47050000
86.46197969,47.70654000
86.50197969,44.17860000
86.54197969,44.17860000
86.58197969,42.41463000
86.62197969,38.88668000
86.66197969,37.12271000
86.70197969,37.12271000
86.74197969,35.35874000
86.78197969,31.83080000
86.82197969,30.06684000
86.86197969,30.06684000
86.90197969,28.29676000
86.94197969,24.76882000
86.98197969,23.00485000
87.02197969,23.00485000
87.06197969,21.24088000
87.10197969,17.71294000
87.14197969,15.94897000
87.18197969,14.18500000
87.22197969,14.18500000
87.26197969,10.65706000
87.30197969,8.89309300
87.34197969,7.12912400
87.38197969,5.36515400
87.42197969,3.60118400
87.46197969,1.83721400
87.50197969,0.07324442
87.54197968,-1.69072500
87.58197968,-3.45469500
87.62197968,-5.21866500
87.66197968,-6.98263500
87.70197968,-8.74660500
87.74197968,-12.27454000
87.78197968,-12.27454000
87.82197968,-14.03851000
87.86197968,-17.56645000
87.90197968,-19.33042000
87.94197968,-21.09439000
87.98197968,-22.85836000
88.02197968,-24.62233000
88.06197968,-26.39241000
88.10197968,-28.15638000
88.14197968,-29.92035000
88.18197968,-33.44828000
88.22197968,-33.44828000
88.26197968,-35.21225000
88.30197968,-36.97623000
88.34197968,-38.74020000
88.38197968,-40.50417000
88.42197968,-42.26814000
88.46197968,-45.79607000
88.50197968,-47.56004000
88.54197968,-47.56004000
88.58197968,-49.32401000
88.62197968,-52.85195000
88.66197968,-54.62203000
88.70197968,-54.62203000
88.74197968,-56.38600000
88.78197968,-59.91394000
88.82197968,-61.67791000
88.86197968,-63.44188000
88.90197968,-63.44188000
88.94197968,-66.96982000
88.98197968,-68.73379000
89.02197968,-68.73379000
89.06197968,-72.26173000
89.10197968,-74.02570000
89.14197968,-75.78967000
89.18197967,-75.78967000
89.22197967,-77.55363000
89.26197967,-79.31760000
89.30197967,-82.85165000
89.34197967,-82.85165000
89.38197967,-84.61562000
89.42197967,-86.37959000
89.46197967,-88.14356000
89.50197967,-89.90753000
89.54197967,-91.67150000
89.58197967,-93.43547000
89.62197967,-96.96341000
89.66197967,-96.96341000
89.70197967,-96.96341000
89.74197967,-98.72738000
89.78197967,-102.25530000
89.82197967,-104.01930000
89.86197967,-104.01930000
89.90197967,-105.78330000
89.94197967,-107.54720000
89.98197967,-109.31120000
90.02197967,-111.08130000
90.06197967,-111.08130000
90.10197967,-112.84520000
90.14197967,-116.37320000
90.18197967,-116.37320000
90.22197967,-118.13720000
90.26197967,-118.13720000
90.30197967,-119.90110000
90.34197967,-121.66510000
90.38197967,-125.19300000
90.42197967,-125.19300000
90.46197967,-125.19300000
90.50197967,-128.72100000
90.54197967,-130.48490000
90.58197967,-130.48490000
90.62197967,-132.24890000
90.66197967,-134.01290000
90.70197967,-134.01290000
90.74197967,-135.77680000
90.78197967,-137.54080000
90.82197966,-137.54080000
90.86197966,-139.31090000
90.90197966,-141.07490000
90.94197966,-141.07490000
90.98197966,-142.83880000
91.02197966,-144.60280000
91.06197966,-146.36680000
91.10197966,-146.36680000
91.14197966,-146.36680000
91.18197966,-148.13070000
91.22197966,-149.89470000
91.26197966,-151.65870000
91.30197966,-153.42260000
91.34197966,-153.42260000
91.38197966,-155.18660000
91.42197966,-155.18660000
91.46197966,-155.18660000
91.50197966,-158.71460000
91.54197966,-158.71460000
91.58197966,-160.47850000
91.62197966,-160.47850000
91.66197966,-160.47850000
91.70197966,-162.24250000
91.74197966,-164.00650000
91.78197966,-164.00650000
91.82197966,-165.77040000
91.86197966,-165.77040000
91.90197966,-167.54050000
91.94197966,-167.54050000
91.98197966,-167.54050000
92.02197966,-169.30450000
92.06197966,-169.30450000
92.10197966,-171.06850000
92.14197966,-171.06850000
92.18197966,-172.83240000
92.22197966,-172.83240000
92.26197966,-174.59640000
92.30197966,-174.59640000
92.34197966,-174.59640000
92.38197966,-174.59640000
92.42197966,-176.36040000
92.46197965,-176.36040000
92.50197965,-176.36040000
92.54197965,-178.12430000
92.58197965,-178.12430000
92.62197965,-179.88830000
92.66197965,-181.65230000
92.70197965,-181.65230000
92.74197965,-181.65230000
92.78197965,-181.65230000
92.82197965,-181.65230000
92.86197965,-181.65230000
92.90197965,-181.65230000
92.94197965,-183.41620000
92.98197965,-181.65230000
93.02197965,-185.18020000
93.06197965,-183.41620000
93.10197965,-183.41620000
93.14197965,-183.41620000
93.18197965,-183.41620000
93.22197965,-185.18020000
93.26197965,-186.94420000
93.30197965,-186.94420000
93.34197965,-186.94420000
93.38197965,-185.18020000
93.42197965,-186.94420000
93.46197965,-186.94420000
93.50197965,-186.94420000
93.54197965,-186.94420000
93.58197965,-186.94420000
93.62197965,-186.94420000
93.66197965,-186.94420000
93.70197965,-186.94420000
93.74197965,-186.94420000
93.78197965,-186.94420000
93.82197965,-186.94420000
93.86197965,-186.94420000
93.90197965,-186.94420000
93.94197965,-186.94420000
93.98197965,-186.94420000
94.02197965,-186.94420000
94.06197965,-186.94420000
94.10197964,-186.94420000
94.14197964,-186.94420000
94.18197964,-186.94420000
94.22197964,-185.18020000
94.26197964,-185.18020000
94.30197964,-185.18020000
94.34197964,-183.41620000
94.38197964,-185.18020000
94.42197964,-183.41620000
94.46197964,-183.41620000
94.50197964,-183.41620000
94.54197964,-183.41620000
94.58197964,-183.41620000
94.62197964,-181.65230000
94.66197964,-181.65230000
94.70197964,-181.65230000
94.74197964,-181.65230000
94.78197964,-181.65230000
94.82197964,-179.88830000
94.86197964,-179.88830000
94.90197964,-179.88830000
94.94197964,-178.12430000
94.98197964,-178.12430000
95.02197964,-176.36040000
95.06197964,-176.36040000
95.10197964,-174.59640000
95.14197964,-176.36040000
95.18197964,-174.59640000
95.22197964,-174.59640000
95.26197964,-174.59640000
95.30197964,-174.59640000
95.34197964,-172.83240000
95.38197964,-172.83240000
95.42197964,-171.06850000
95.46197964,-169.30450000
95.50197964,-169.30450000
95.54197964,-169.30450000
95.58197964,-167.54050000
95.62197964,-167.54050000
95.66197964,-165.77040000
95.70197964,-165.77040000
95.74197964,-165.77040000
95.78197963,-162.24250000
95.82197963,-162.24250000
95.86197963,-162.24250000
95.90197963,-160.47850000
95.94197963,-160.47850000
95.98197963,-158.71460000
96.02197963,-158.71460000
96.06197963,-155.18660000
96.10197963,-155.18660000
96.14197963,-153.42260000
96.18197963,-153.42260000
96.22197963,-153.42260000
96.26197963,-151.65870000
96.30197963,-149.89470000
96.34197963,-149.89470000
96.38197963,-148.13070000
96.42197963,-146.36680000
96.46197963,-146.36680000
96.50197963,-144.60280000
96.54197963,-144.60280000
96.58197963,-141.07490000
96.62197963,-141.07490000
96.66197963,-139.31090000
96.70197963,-139.31090000
96.74197963,-137.54080000
96.78197963,-135.77680000
96.82197963,-134.01290000
96.86197963,-134.01290000
96.90197963,-132.24890000
96.94197963,-130.48490000
96.98197963,-130.48490000
97.02197963,-126.95700000
97.06197963,-126.95700000
97.10197963,-125.19300000
97.14197963,-125.19300000
97.18197963,-121.66510000
97.22197963,-119.90110000
97.26197963,-119.90110000
97.30197963,-118.13720000
97.34197963,-116.37320000
97.38197963,-116.37320000
97.42197962,-112.84520000
97.46197962,-111.08130000
97.50197962,-111.08130000
97.54197962,-109.31120000
97.58197962,-107.54720000
97.62197962,-105.78330000
97.66197962,-104.01930000
97.70197962,-104.01930000
97.74197962,-100.49130000
97.78197962,-98.72738000
97.82197962,-96.96341000
97.86197962,-96.96341000
97.90197962,-95.19944000
97.94197962,-93.43547000
97.98197962,-91.67150000
98.02197962,-89.90753000
98.06197962,-89.90753000
98.10197962,-88.14356000
98.14197962,-84.61562000
98.18197962,-82.85165000
98.22197962,-82.85165000
98.26197962,-82.85165000
98.30197962,-77.55363000
98.34197962,-77.55363000
98.38197962,-75.78967000
98.42197962,-74.02570000
98.46197962,-72.26173000
98.50197962,-70.49776000
98.54197962,-68.73379000
98.58197962,-66.96982000
98.62197962,-63.44188000
98.66197962,-63.44188000
98.70197962,-61.67791000
98.74197962,-59.91394000
98.78197962,-58.14997000
98.82197962,-54.62203000
98.86197962,-54.62203000
98.90197962,-52.85195000
98.94197962,-49.32401000
98.98197962,-47.56004000
99.02197962,-47.56004000
99.06197961,-45.79607000
99.10197961,-42.26814000
99.14197961,-40.50417000
99.18197961,-40.50417000
99.22197961,-36.97623000
99.26197961,-35.21225000
99.30197961,-33.44828000
99.34197961,-33.44828000
99.38197961,-29.92035000
99.42197961,-28.15638000
99.46197961,-26.39241000
99.50197961,-24.62233000
99.54197961,-24.62233000
99.58197961,-21.09439000
99.62197961,-19.33042000
99.66197961,-17.56645000
99.70197961,-17.56645000
99.74197961,-14.03851000
99.78197961,-12.27454000
99.82197961,-10.51057000
99.86197961,-6.98263500
99.90197961,-5.21866500
99.94197961,-5.21866500
99.98197961,-3.45469500
100.02197961,0.07324442
